#  Im SED of Coleman, Wu, and Weedman (1980)
#  Extended below 1400 A and beyond 10000 A by 
#  Bolzonella, Miralles, and Pello (2000) using evolutionary models
#  of Bruzual and Charlot (1993)
#
#  Angstroms     Flux/A
#
   91.00000       3.695083    
   94.00000       4.648653    
   96.00000       5.362111    
   98.00000       6.137460    
   100.0000       6.979856    
   102.0000       7.879559    
   104.0000       8.842298    
   106.0000       9.868073    
   108.0000       10.95115    
   110.0000       12.08581    
   114.0000       14.50985    
   118.0000       17.11727    
   121.0000       19.17455    
   125.0000       22.02838    
   127.0000       23.49541    
   128.0000       24.23466    
   131.0000       26.48678    
   132.0000       27.24322    
   134.0000       28.76182    
   137.0000       31.04832    
   140.0000       33.34056    
   143.0000       35.62133    
   147.0000       38.62989    
   151.0000       41.56968    
   155.0000       44.43498    
   159.0000       47.19139    
   162.0000       49.18563    
   166.0000       51.73575    
   170.0000       54.14832    
   173.0000       55.86177    
   177.0000       57.99355    
   180.0000       59.54081    
   182.0000       60.51501    
   186.0000       62.29149    
   191.0000       64.35450    
   194.0000       65.44331    
   198.0000       66.81866    
   202.0000       68.02208    
   205.0000       68.82436    
   210.0000       69.97047    
   216.0000       71.11659    
   220.0000       71.74696    
   223.0000       72.09080    
   227.0000       72.49194    
   230.0000       72.77847    
   234.0000       73.29422    
   240.0000       73.63805    
   246.0000       73.98189    
   252.0000       76.15952    
   257.0000       80.40015    
   260.0000       79.02480    
   264.0000       100.3426    
   269.0000       105.5574    
   274.0000       109.6834    
   279.0000       94.61201    
   284.0000       116.1017    
   290.0000       126.8179    
   296.0000       116.5602    
   301.0000       112.3768    
   308.0000       124.8122    
   318.0000       122.2907    
   328.0000       130.1990    
   338.0000       126.4168    
   348.0000       121.5458    
   357.0000       171.8603    
   366.0000       275.1828    
   375.0000       269.3949    
   385.0000       213.2925    
   395.0000       325.2109    
   405.0000       407.3302    
   414.0000       402.0007    
   422.0000       361.1417    
   430.0000       342.8611    
   441.0000       399.1927    
   451.0000       404.1784    
   460.0000       350.0816    
   470.0000       354.0357    
   480.0000       397.7028    
   490.0000       328.1335    
   500.0000       408.7628    
   506.0000       339.7093    
   512.0000       596.5542    
   520.0000       561.5976    
   530.0000       509.3347    
   540.0000       414.5507    
   550.0000       404.8087    
   560.0000       529.2198    
   570.0000       588.5314    
   580.0000       563.7180    
   590.0000       568.8755    
   600.0000       463.5472    
   610.0000       457.9313    
   620.0000       574.2049    
   630.0000       535.5234    
   640.0000       578.2163    
   650.0000       550.5949    
   658.0000       498.1027    
   665.0000       558.5604    
   675.0000       582.2277    
   685.0000       484.5212    
   695.0000       565.7236    
   705.0000       441.7137    
   716.0000       572.8868    
   726.0000       570.0789    
   735.0000       566.2394    
   745.0000       541.7698    
   755.0000       532.4862    
   765.0000       474.8365    
   775.0000       523.0881    
   785.0000       479.1345    
   795.0000       508.3031    
   805.0000       511.3977    
   815.0000       507.6155    
   825.0000       512.2000    
   835.0000       393.5195    
   845.0000       489.3349    
   855.0000       476.8995    
   865.0000       489.3922    
   875.0000       487.0427    
   885.0000       485.1516    
   895.0000       482.3436    
   905.0000       465.6103    
   915.0000       479.8221    
   925.0000       1251.560    
   935.0000       2067.023    
   945.0000       2952.972    
   955.0000       3543.222    
   965.0000       3845.798    
   975.0000       1157.579    
   985.0000       2964.433    
   995.0000       2917.442    
   1005.000       3839.494    
   1015.000       3833.763    
   1025.000       2304.843    
   1035.000       3075.033    
   1045.000       4637.192    
   1055.000       4418.283    
   1065.000       3582.190    
   1075.000       4021.727    
   1085.000       3368.439    
   1095.000       4089.347    
   1105.000       3829.179    
   1115.000       3663.565    
   1125.000       3174.173    
   1135.000       3877.889    
   1145.000       3567.864    
   1155.000       3627.462    
   1165.000       3601.675    
   1175.000       2371.317    
   1185.000       3421.734    
   1195.000       2731.771    
   1205.000       2169.028    
   1215.000       1658.432    
   1225.000       2601.114    
   1235.000       3346.090    
   1245.000       3460.129    
   1255.000       3290.504    
   1265.000       3040.077    
   1275.000       3490.501    
   1285.000       3531.761    
   1295.000       2882.486    
   1305.000       2907.700    
   1315.000       3387.924    
   1325.000       3184.488    
   1335.000       2903.689    
   1345.000       3213.141    
   1355.000       3101.394    
   1365.000       2814.292    
   1375.000       2828.618    
   1385.000       2803.404    
   1395.000       2180.489    
   1405.000       2207.996    
   1415.000       2544.954    
   1425.000       2501.975    
   1435.000       2551.831    
   1442.000       2612.002    
   1447.000       2601.114    
   1455.000       2506.559    
   1465.000       2327.192    
   1475.000       2334.642    
   1485.000       2332.922    
   1500.000       2310.000    
   1600.000       2215.000    
   1700.000       2121.000    
   1800.000       2026.000    
   1900.000       1908.000    
   2000.000       1776.000    
   2100.000       1643.000    
   2200.000       1523.000    
   2300.000       1417.000    
   2400.000       1320.000    
   2500.000       1232.000    
   2600.000       1154.000    
   2700.000       1086.000    
   2800.000       1029.000    
   2900.000       980.0000    
   2940.000       964.0000    
   2980.000       948.0000    
   3020.000       934.0000    
   3060.000       922.0000    
   3100.000       911.0000    
   3140.000       901.0000    
   3180.000       893.0000    
   3220.000       887.0000    
   3260.000       880.0000    
   3300.000       876.0000    
   3340.000       874.0000    
   3380.000       872.0000    
   3420.000       867.0000    
   3460.000       869.0000    
   3500.000       876.0000    
   3540.000       842.0000    
   3580.000       813.0000    
   3620.000       813.0000    
   3660.000       811.0000    
   3700.000       1206.000    
   3740.000       1559.000    
   3780.000       930.0000    
   3820.000       972.0000    
   3860.000       1094.000    
   3900.000       1026.000    
   3940.000       1011.000    
   3980.000       1021.000    
   4020.000       1103.000    
   4060.000       1086.000    
   4100.000       1058.000    
   4140.000       1030.000    
   4180.000       1071.000    
   4220.000       1038.000    
   4260.000       1018.000    
   4300.000       950.0000    
   4340.000       1032.000    
   4380.000       1002.000    
   4420.000       987.0000    
   4460.000       996.0000    
   4500.000       998.0000    
   4540.000       987.0000    
   4580.000       984.0000    
   4620.000       956.0000    
   4660.000       974.0000    
   4700.000       941.0000    
   4740.000       927.0000    
   4780.000       922.0000    
   4820.000       896.0000    
   4860.000       1189.000    
   4900.000       894.0000    
   4940.000       1052.000    
   4980.000       1325.000    
   5020.000       1584.000    
   5060.000       843.0000    
   5100.000       857.0000    
   5140.000       801.0000    
   5180.000       799.0000    
   5220.000       809.0000    
   5260.000       787.0000    
   5300.000       827.0000    
   5340.000       777.0000    
   5380.000       774.0000    
   5420.000       742.0000    
   5460.000       744.0000    
   5500.000       754.0000    
   5540.000       740.0000    
   5580.000       733.0000    
   5620.000       726.0000    
   5660.000       720.0000    
   5700.000       716.0000    
   5740.000       711.0000    
   5780.000       708.0000    
   5820.000       705.0000    
   5860.000       703.0000    
   5900.000       699.0000    
   5940.000       696.0000    
   5980.000       693.0000    
   6020.000       688.0000    
   6060.000       683.0000    
   6100.000       678.0000    
   6140.000       674.0000    
   6180.000       669.0000    
   6220.000       664.0000    
   6260.000       659.0000    
   6300.000       654.0000    
   6340.000       650.0000    
   6380.000       646.0000    
   6420.000       641.0000    
   6460.000       637.0000    
   6500.000       633.0000    
   6540.000       629.0000    
   6580.000       625.0000    
   6620.000       621.0000    
   6660.000       617.0000    
   6700.000       613.0000    
   6740.000       610.0000    
   6780.000       606.0000    
   6820.000       603.0000    
   6860.000       599.0000    
   6900.000       596.0000    
   6940.000       593.0000    
   6980.000       590.0000    
   7020.000       587.0000    
   7060.000       583.0000    
   7100.000       580.0000    
   7140.000       577.0000    
   7180.000       574.0000    
   7220.000       571.0000    
   7260.000       568.0000    
   7300.000       565.0000    
   7340.000       563.0000    
   7380.000       560.0000    
   7420.000       557.0000    
   7460.000       555.0000    
   7500.000       552.0000    
   7540.000       549.0000    
   7580.000       546.0000    
   7620.000       544.0000    
   7660.000       542.0000    
   7700.000       539.0000    
   7740.000       537.0000    
   7780.000       534.0000    
   7820.000       532.0000    
   7860.000       530.0000    
   7900.000       527.0000    
   7940.000       525.0000    
   8000.000       522.0000    
   8100.000       516.0000    
   8200.000       511.0000    
   8300.000       506.0000    
   8400.000       501.0000    
   8500.000       497.0000    
   8600.000       492.0000    
   8700.000       488.0000    
   8800.000       484.0000    
   8900.000       480.0000    
   9000.000       476.0000    
   9100.000       472.0000    
   9200.000       468.0000    
   9300.000       464.0000    
   9400.000       460.0000    
   9500.000       457.0000    
   9600.000       453.0000    
   9700.000       450.0000    
   9800.000       447.0000    
   9900.000       444.0000    
   10000.00       444.0000    
   10025.00       431.7750    
   10075.00       420.7532    
   10125.00       429.7535    
   10175.00       423.1597    
   10225.00       421.8120    
   10275.00       420.1756    
   10325.00       410.5496    
   10375.00       405.5922    
   10425.00       404.8702    
   10475.00       399.5278    
   10525.00       397.8914    
   10575.00       391.1532    
   10625.00       388.6023    
   10675.00       378.7356    
   10725.00       377.5805    
   10775.00       372.7675    
   10825.00       365.5961    
   10875.00       363.7190    
   10925.00       355.1519    
   10975.00       355.1037    
   11025.00       357.5584    
   11075.00       354.8631    
   11125.00       351.2052    
   11175.00       346.2959    
   11225.00       344.4189    
   11275.00       337.3437    
   11325.00       334.7928    
   11375.00       331.4237    
   11425.00       326.8033    
   11475.00       329.4504    
   11525.00       326.8033    
   11575.00       320.7870    
   11625.00       315.1558    
   11675.00       313.8081    
   11725.00       315.3483    
   11775.00       308.2732    
   11825.00       305.4816    
   11875.00       299.3210    
   11925.00       303.6046    
   11975.00       291.5720    
   12025.00       296.8182    
   12075.00       291.8127    
   12125.00       290.5613    
   12175.00       290.4650    
   12225.00       287.2403    
   12275.00       284.3044    
   12325.00       281.1278    
   12375.00       279.8764    
   12425.00       276.7480    
   12475.00       275.4003    
   12525.00       271.3574    
   12575.00       270.0097    
   12625.00       268.0364    
   12675.00       264.2341    
   12725.00       263.5603    
   12775.00       262.4533    
   12825.00       247.7737    
   12875.00       255.6189    
   12925.00       251.3353    
   12975.00       254.2712    
   13025.00       249.4582    
   13075.00       250.7577    
   13125.00       245.1746    
   13175.00       244.2602    
   13225.00       243.8751    
   13275.00       238.8696    
   13325.00       240.6985    
   13375.00       237.0888    
   13425.00       238.4364    
   13475.00       236.0299    
   13525.00       234.7785    
   13575.00       230.1099    
   13625.00       228.6179    
   13675.00       228.9067    
   13725.00       228.9067    
   13775.00       226.9333    
   13825.00       226.7889    
   13875.00       223.5642    
   13925.00       223.6124    
   13975.00       223.1792    
   14025.00       218.6550    
   14075.00       220.3395    
   14125.00       216.5372    
   14175.00       218.1737    
   14225.00       214.2270    
   14275.00       209.7990    
   14325.00       213.5532    
   14375.00       213.4569    
   14425.00       206.2855    
   14475.00       210.4247    
   14525.00       207.1037    
   14570.00       208.1145    
   14620.00       207.0556    
   14675.00       206.4299    
   14725.00       201.9538    
   14775.00       202.9164    
   14825.00       202.1463    
   14875.00       199.8842    
   14925.00       203.7828    
   14975.00       199.9805    
   15025.00       198.6810    
   15075.00       195.8413    
   15125.00       198.1997    
   15175.00       198.0553    
   15225.00       197.4777    
   15275.00       198.0553    
   15325.00       195.8894    
   15375.00       197.8146    
   15425.00       195.9376    
   15475.00       195.8413    
   15525.00       192.3278    
   15575.00       181.9317    
   15625.00       187.5148    
   15675.00       185.2045    
   15725.00       189.7288    
   15775.00       174.2790    
   15825.00       177.6000    
   15875.00       174.3753    
   15925.00       180.2471    
   15975.00       175.0010    
   16050.00       175.9154    
   16150.00       174.9047    
   16250.00       171.6800    
   16350.00       176.3486    
   16450.00       163.4016    
   16550.00       170.7655    
   16650.00       160.8507    
   16750.00       163.8348    
   16850.00       155.1714    
   16950.00       159.7919    
   17050.00       154.0163    
   17150.00       154.0644    
   17250.00       150.5028    
   17350.00       143.8608    
   17450.00       146.0748    
   17550.00       142.0319    
   17650.00       141.6468    
   17750.00       137.6520    
   17850.00       136.9782    
   17950.00       134.7161    
   18050.00       130.6732    
   18150.00       129.2774    
   18250.00       127.2078    
   18350.00       124.8013    
   18450.00       122.5873    
   18550.00       121.4803    
   18650.00       117.9187    
   18750.00       115.6085    
   18850.00       114.9346    
   18950.00       109.9291    
   19050.00       112.6244    
   19150.00       109.9291    
   19250.00       108.8221    
   19350.00       105.2605    
   19450.00       102.7096    
   19550.00       103.2390    
   19650.00       101.2176    
   19750.00       98.81106    
   19850.00       97.99284    
   19950.00       96.59707    
   20050.00       96.35642    
   20150.00       94.91252    
   20250.00       91.73593    
   20350.00       90.53268    
   20450.00       90.77333    
   20550.00       88.84813    
   20650.00       87.11545    
   20750.00       86.05658    
   20850.00       84.37203    
   20950.00       82.63935    
   21050.00       82.49496    
   21150.00       80.71414    
   21250.00       79.31837    
   21350.00       79.07772    
   21450.00       77.68195    
   21550.00       76.23804    
   21650.00       74.50536    
   21750.00       73.39837    
   21850.00       72.67642    
   21950.00       71.85821    
   22050.00       69.74049    
   22150.00       70.07740    
   22250.00       67.81528    
   22350.00       67.14146    
   22450.00       66.27512    
   22550.00       65.60130    
   22650.00       63.86862    
   22750.00       64.01301    
   22850.00       62.37658    
   22950.00       52.31740    
   23050.00       56.45658    
   23150.00       55.59024    
   23250.00       47.50920    
   23350.00       51.64358    
   23450.00       49.33333    
   23550.00       42.62400    
   23650.00       47.40813    
   23750.00       45.20377    
   23850.00       40.30894    
   23950.00       44.05346    
   24050.00       43.07642    
   24150.00       38.81691    
   24250.00       41.69990    
   24350.00       40.91057    
   24450.00       38.46075    
   24550.00       38.63401    
   24650.00       39.83727    
   24750.00       38.32117    
   24850.00       36.11681    
   24950.00       37.17567    
   25050.00       38.47037    
   25150.00       34.85099    
   25250.00       36.59811    
   25350.00       36.43447    
   25450.00       35.75102    
   25550.00       34.98094    
   25650.00       35.00019    
   25750.00       35.38523    
   25850.00       33.34933    
   25950.00       33.74400    
   26050.00       34.32156    
   26150.00       33.27232    
   26250.00       32.65626    
   26350.00       33.10868    
   26450.00       32.88728    
   26550.00       32.19902    
   26650.00       31.50114    
   26750.00       32.38673    
   26850.00       32.03057    
   26950.00       30.75512    
   27050.00       31.32306    
   27150.00       30.95245    
   27250.00       31.01984    
   27350.00       29.75883    
   27450.00       30.16312    
   27550.00       30.08130    
   27650.00       29.55668    
   27750.00       28.72885    
   27850.00       29.04650    
   27950.00       29.06576    
   28050.00       28.69997    
   28150.00       27.95395    
   28250.00       27.96358    
   28350.00       27.94432    
   28450.00       27.54485    
   28550.00       27.14536    
   28650.00       26.89509    
   28750.00       26.57262    
   28850.00       26.39935    
   28950.00       26.12020    
   29050.00       25.80735    
   29150.00       25.63889    
   29250.00       25.05652    
   29350.00       25.16241    
   29450.00       24.70998    
   29550.00       24.45008    
   29650.00       24.34901    
   29750.00       24.09392    
   29850.00       23.72813    
   29950.00       23.47785    
   30050.00       23.19389    
   30150.00       23.05431    
   30250.00       22.69814    
   30350.00       22.27460    
   30450.00       22.21684    
   30550.00       21.94732    
   30650.00       21.70667    
   30750.00       21.52859    
   30850.00       21.14836    
   30950.00       20.94140    
   31050.00       20.83070    
   31150.00       20.41678    
   31250.00       20.30127    
   31350.00       20.07987    
   31450.00       19.84403    
   31550.00       19.59857    
   31650.00       19.30498    
   31750.00       19.18946    
   31850.00       18.94881    
   31950.00       18.77555    
   32100.00       18.41938    
   32300.00       17.96215    
   32500.00       17.55785    
   32700.00       17.13431    
   32900.00       16.68670    
   33100.00       16.34497    
   33300.00       15.96956    
   33500.00       15.67597    
   33700.00       15.29574    
   33900.00       14.93958    
   34100.00       14.58341    
   34300.00       14.32833    
   34500.00       14.04436    
   34700.00       13.72670    
   34900.00       13.44273    
   35100.00       13.18283    
   35300.00       12.85073    
   35500.00       12.61971    
   35700.00       12.34055    
   35900.00       12.07584    
   36100.00       11.85925    
   36300.00       11.61860    
   36500.00       11.32501    
   36700.00       11.09880    
   36900.00       10.79076    
   37100.00       10.54530    
   37300.00       10.39128    
   37500.00       10.07363    
   37700.00       10.00624    
   37900.00       9.794472    
   38100.00       9.626016    
   38300.00       9.472000    
   38500.00       9.308357    
   38700.00       9.072520    
   38900.00       8.913691    
   39100.00       8.759675    
   39300.00       8.605659    
   39500.00       8.384260    
   39700.00       8.239870    
   39900.00       8.008845    
   40100.00       7.917398    
   40300.00       7.801886    
   40500.00       7.628618    
   40700.00       7.517919    
   40900.00       7.387967    
   41100.00       7.258016    
   41300.00       7.142504    
   41500.00       6.993300    
   41700.00       6.848910    
   41900.00       6.733398    
   42100.00       6.598634    
   42300.00       6.531252    
   42500.00       6.382049    
   42700.00       6.290601    
   42900.00       5.794862    
   43100.00       5.332813    
   43300.00       5.424260    
   43500.00       5.029593    
   43700.00       4.841886    
   43900.00       4.688832    
   44100.00       4.346146    
   44300.00       4.336520    
   44500.00       4.213307    
   44700.00       3.972175    
   44900.00       4.058329    
   45100.00       3.903349    
   45300.00       3.745964    
   45500.00       3.790244    
   45700.00       3.723824    
   45900.00       3.538523    
   46100.00       3.626601    
   46300.00       3.513977    
   46500.00       3.472104    
   46700.00       3.476917    
   46900.00       3.399427    
   47100.00       3.320013    
   47300.00       3.376325    
   47500.00       3.283434    
   47700.00       3.242042    
   47900.00       3.206907    
   48100.00       3.110166    
   48300.00       3.172253    
   48500.00       3.098133    
   48700.00       3.022569    
   48900.00       2.995616    
   49100.00       2.949411    
   49300.00       2.910907    
   49500.00       2.846894    
   49700.00       2.865665    
   49900.00       2.811759    
   50100.00       2.789619    
   50300.00       2.753522    
   50500.00       2.676514    
   50700.00       2.672182    
   50900.00       2.633678    
   51100.00       2.586029    
   51300.00       2.561002    
   51500.00       2.518166    
   51700.00       2.535974    
   51900.00       2.484475    
   52100.00       2.456078    
   52300.00       2.413723    
   52500.00       2.405541    
   52700.00       2.422387    
   52900.00       2.340566    
   53100.00       2.298211    
   53300.00       2.300137    
   53500.00       2.269814    
   53700.00       2.245749    
   53900.00       2.227460    
   54100.00       2.204358    
   54300.00       2.157190    
   54500.00       2.165854    
   54700.00       2.111467    
   54900.00       2.110504    
   55100.00       2.063818    
   55300.00       2.109541    
   55500.00       2.027239    
   55700.00       2.039272    
   55900.00       1.997880    
   56100.00       2.004137    
   56300.00       1.948787    
   56500.00       1.955044    
   56700.00       1.929535    
   56900.00       1.880924    
   57100.00       1.891994    
   57300.00       1.872260    
   57500.00       1.847232    
   57700.00       1.824611    
   57900.00       1.820280    
   58100.00       1.790920    
   58300.00       1.774075    
   58500.00       1.754341    
   58700.00       1.720650    
   58900.00       1.707655    
   59100.00       1.685034    
   59300.00       1.678296    
   59500.00       1.648937    
   59700.00       1.645086    
   59900.00       1.627278    
   60100.00       1.608507    
   60300.00       1.589736    
   60500.00       1.562302    
   60700.00       1.547863    
   60900.00       1.527649    
   61100.00       1.508878    
   61300.00       1.499252    
   61500.00       1.486738    
   61700.00       1.478075    
   61900.00       1.456898    
   62100.00       1.447272    
   62300.00       1.423207    
   62500.00       1.400585    
   62700.00       1.386628    
   62900.00       1.373632    
   63100.00       1.357750    
   63300.00       1.351493    
   63500.00       1.331759    
   63700.00       1.325984    
   63900.00       1.300956    
   64200.00       1.285555    
   64600.00       1.253789    
   65000.00       1.227798    
   65400.00       1.200364    
   65800.00       1.177262    
   66200.00       1.149828    
   66600.00       1.125763    
   67000.00       1.102660    
   67400.00       1.076670    
   67800.00       1.054049    
   68200.00       1.030946    
   68600.00       1.010732    
   69000.00      0.9876292    
   69400.00      0.9669333    
   69800.00      0.9467186    
   70200.00      0.9260227    
   70600.00      0.9072520    
   71000.00      0.8875186    
   71400.00      0.8697105    
   71800.00      0.8509398    
   72200.00      0.8336130    
   72600.00      0.8158048    
   73000.00      0.7994407    
   73400.00      0.7821138    
   73800.00      0.7667122    
   74200.00      0.7493854    
   74600.00      0.7325398    
   75000.00      0.7176195    
   75400.00      0.7041431    
   75800.00      0.6911480    
   76200.00      0.6776716    
   76600.00      0.6637138    
   77000.00      0.6502374    
   77400.00      0.6377236    
   77800.00      0.6252097    
   78200.00      0.6126959    
   78600.00      0.6006634    
   79000.00      0.5891122    
   79400.00      0.5775610    
   79800.00      0.5664910    
   80200.00      0.5549399    
   80600.00      0.5443512    
   81000.00      0.5342439    
   81400.00      0.5236553    
   81800.00      0.5140293    
   82200.00      0.5044032    
   82600.00      0.4947772    
   83000.00      0.4856325    
   83400.00      0.4762953    
   83800.00      0.4674394    
   84200.00      0.4592091    
   84600.00      0.4505938    
   85000.00      0.4424117    
   85400.00      0.4344221    
   85800.00      0.4266250    
   86200.00      0.4190205    
   86600.00      0.4115603    
   87000.00      0.4041964    
   87400.00      0.3970731    
   87800.00      0.3898537    
   88200.00      0.3828748    
   88600.00      0.3761366    
   89000.00      0.3695427    
   89400.00      0.3632377    
   89800.00      0.3565958    
   90200.00      0.3508683    
   90600.00      0.3449483    
   91000.00      0.3384026    
   91400.00      0.3330120    
   91800.00      0.3274771    
   92200.00      0.3221346    
   92600.00      0.3166959    
   93000.00      0.3114016    
   93400.00      0.3061073    
   93800.00      0.3011499    
   94200.00      0.2960963    
   94600.00      0.2910907    
   95000.00      0.2863740    
   95400.00      0.2817535    
   95800.00      0.2772292    
   96200.00      0.2726569    
   96600.00      0.2683252    
   97000.00      0.2640416    
   97400.00      0.2593249    
