#  E SED of Coleman, Wu, and Weedman (1980)
#  Extended below 1400 A and beyond 10000 A by 
#  Bolzonella, Miralles, and Pello (2000) using evolutionary models
#  of Bruzual and Charlot (1993)
#
#  Angstroms     Flux/A
#
   91.00000      0.3211272    
   94.00000      0.4439453    
   96.00000      0.5435354    
   98.00000      0.6596755    
   100.0000      0.7932366    
   102.0000      0.9456704    
   104.0000       1.119009    
   106.0000       1.314125    
   108.0000       1.532468    
   110.0000       1.775201    
   114.0000       2.338770    
   118.0000       3.013834    
   121.0000       3.594535    
   125.0000       4.477199    
   127.0000       4.964987    
   128.0000       5.220495    
   131.0000       6.033475    
   132.0000       6.318019    
   134.0000       6.916140    
   137.0000       7.868488    
   140.0000       8.887617    
   143.0000       9.973527    
   147.0000       11.52109    
   151.0000       13.17899    
   155.0000       14.93271    
   159.0000       16.77933    
   162.0000       18.21947    
   166.0000       20.20256    
   170.0000       22.24953    
   173.0000       23.82323    
   177.0000       25.96021    
   180.0000       27.58907    
   182.0000       28.68369    
   186.0000       30.89325    
   191.0000       33.68061    
   194.0000       35.33561    
   198.0000       37.57130    
   202.0000       39.77797    
   205.0000       41.43296    
   210.0000       44.13322    
   216.0000       47.32707    
   220.0000       49.38855    
   223.0000       50.92741    
   227.0000       52.90179    
   230.0000       54.38258    
   234.0000       56.29889    
   240.0000       59.05722    
   246.0000       61.67037    
   252.0000       64.39966    
   257.0000       66.83860    
   260.0000       67.73869    
   264.0000       70.99061    
   269.0000       73.02306    
   274.0000       74.93937    
   279.0000       75.20068    
   284.0000       78.16225    
   290.0000       80.28181    
   296.0000       80.94962    
   301.0000       81.38514    
   308.0000       82.72075    
   318.0000       83.70794    
   328.0000       85.01451    
   338.0000       85.27583    
   348.0000       85.39198    
   357.0000       87.42442    
   366.0000       91.28608    
   375.0000       90.90862    
   385.0000       87.97609    
   395.0000       91.48933    
   405.0000       93.72502    
   414.0000       92.65072    
   422.0000       90.24082    
   430.0000       88.73100    
   441.0000       89.63109    
   451.0000       88.35355    
   460.0000       85.13065    
   470.0000       83.85311    
   480.0000       83.88215    
   490.0000       80.28181    
   500.0000       81.67549    
   506.0000       78.19128    
   512.0000       83.35952    
   520.0000       81.09479    
   530.0000       77.98804    
   540.0000       72.99402    
   550.0000       70.70026    
   560.0000       72.76174    
   570.0000       73.13919    
   580.0000       71.19385    
   590.0000       69.68403    
   600.0000       65.35781    
   610.0000       62.77370    
   620.0000       64.77711    
   630.0000       61.90265    
   640.0000       62.30914    
   650.0000       60.07344    
   658.0000       57.57643    
   665.0000       58.41845    
   675.0000       57.63449    
   685.0000       53.94705    
   695.0000       54.67293    
   705.0000       50.43382    
   716.0000       52.17591    
   726.0000       51.10162    
   735.0000       49.99829    
   745.0000       48.22716    
   755.0000       46.86251    
   765.0000       44.10418    
   775.0000       44.59778    
   785.0000       42.10077    
   795.0000       42.15884    
   805.0000       41.60717    
   815.0000       40.64902    
   825.0000       39.80700    
   835.0000       36.38087    
   845.0000       37.71648    
   855.0000       36.55508    
   865.0000       36.14859    
   875.0000       35.33561    
   885.0000       34.49360    
   895.0000       33.70965    
   905.0000       32.66439    
   915.0000       32.57728    
   925.0000       43.49445    
   935.0000       54.61486    
   945.0000       64.22545    
   955.0000       69.94534    
   965.0000       71.94876    
   975.0000       41.17165    
   985.0000       58.56362    
   995.0000       56.76345    
   1005.000       65.27071    
   1015.000       66.28693    
   1025.000       52.66951    
   1035.000       58.76686    
   1045.000       72.70367    
   1055.000       69.68403    
   1065.000       60.56704    
   1075.000       64.31255    
   1085.000       56.87959    
   1095.000       64.25448    
   1105.000       60.94449    
   1115.000       58.97011    
   1125.000       52.61144    
   1135.000       59.92826    
   1145.000       57.05379    
   1155.000       56.56021    
   1165.000       55.19556    
   1175.000       40.79419    
   1185.000       52.35013    
   1195.000       45.87532    
   1205.000       39.60376    
   1215.000       35.48079    
   1225.000       45.14944    
   1235.000       50.54996    
   1245.000       50.95644    
   1255.000       49.30145    
   1265.000       47.55935    
   1275.000       50.95644    
   1285.000       50.95644    
   1295.000       44.01708    
   1305.000       44.16225    
   1315.000       48.92400    
   1325.000       46.60119    
   1335.000       42.94278    
   1345.000       46.51409    
   1355.000       45.12041    
   1365.000       41.81042    
   1375.000       41.49103    
   1385.000       40.93937    
   1395.000       32.43211    
   1405.000       31.76430    
   1415.000       37.83262    
   1425.000       36.90350    
   1435.000       37.68745    
   1442.000       37.94876    
   1447.000       37.74552    
   1455.000       36.49701    
   1465.000       34.52263    
   1475.000       34.58070    
   1485.000       34.60973    
   1500.000       34.00000    
   1600.000       33.00000    
   1700.000       32.00000    
   1800.000       32.00000    
   1900.000       34.00000    
   2000.000       39.00000    
   2100.000       43.00000    
   2200.000       45.00000    
   2300.000       40.00000    
   2400.000       34.00000    
   2500.000       36.00000    
   2600.000       46.00000    
   2700.000       76.00000    
   2800.000       106.0000    
   2900.000       149.0000    
   2940.000       165.0000    
   2980.000       184.0000    
   3020.000       193.0000    
   3060.000       190.0000    
   3100.000       203.0000    
   3140.000       245.0000    
   3180.000       293.0000    
   3220.000       309.0000    
   3260.000       302.0000    
   3300.000       310.0000    
   3340.000       311.0000    
   3380.000       310.0000    
   3420.000       320.0000    
   3460.000       328.0000    
   3500.000       343.0000    
   3540.000       331.0000    
   3580.000       321.0000    
   3620.000       362.0000    
   3660.000       411.0000    
   3700.000       423.0000    
   3740.000       399.0000    
   3780.000       362.0000    
   3820.000       318.0000    
   3860.000       322.0000    
   3900.000       358.0000    
   3940.000       410.0000    
   3980.000       551.0000    
   4020.000       684.0000    
   4060.000       733.0000    
   4100.000       722.0000    
   4140.000       687.0000    
   4180.000       696.0000    
   4220.000       733.0000    
   4260.000       735.0000    
   4300.000       764.0000    
   4340.000       840.0000    
   4380.000       881.0000    
   4420.000       927.0000    
   4460.000       994.0000    
   4500.000       1036.000    
   4540.000       1066.000    
   4580.000       1106.000    
   4620.000       1124.000    
   4660.000       1112.000    
   4700.000       1124.000    
   4740.000       1174.000    
   4780.000       1209.000    
   4820.000       1201.000    
   4860.000       1167.000    
   4900.000       1168.000    
   4940.000       1188.000    
   4980.000       1150.000    
   5020.000       1116.000    
   5060.000       1121.000    
   5100.000       1113.000    
   5140.000       1061.000    
   5180.000       1043.000    
   5220.000       1112.000    
   5260.000       1177.000    
   5300.000       1220.000    
   5340.000       1256.000    
   5380.000       1236.000    
   5420.000       1205.000    
   5460.000       1218.000    
   5500.000       1229.000    
   5540.000       1248.000    
   5580.000       1256.000    
   5620.000       1253.000    
   5660.000       1260.000    
   5700.000       1258.000    
   5740.000       1257.000    
   5780.000       1242.000    
   5820.000       1226.000    
   5860.000       1206.000    
   5900.000       1212.000    
   5940.000       1248.000    
   5980.000       1286.000    
   6020.000       1313.000    
   6060.000       1325.000    
   6100.000       1324.000    
   6140.000       1312.000    
   6180.000       1291.000    
   6220.000       1267.000    
   6260.000       1241.000    
   6300.000       1220.000    
   6340.000       1214.000    
   6380.000       1220.000    
   6420.000       1232.000    
   6460.000       1248.000    
   6500.000       1263.000    
   6540.000       1277.000    
   6580.000       1287.000    
   6620.000       1284.000    
   6660.000       1265.000    
   6700.000       1252.000    
   6740.000       1249.000    
   6780.000       1248.000    
   6820.000       1251.000    
   6860.000       1252.000    
   6900.000       1252.000    
   6940.000       1250.000    
   6980.000       1252.000    
   7020.000       1246.000    
   7060.000       1238.000    
   7100.000       1216.000    
   7140.000       1168.000    
   7180.000       1128.000    
   7220.000       1134.000    
   7260.000       1174.000    
   7300.000       1215.000    
   7340.000       1238.000    
   7380.000       1253.000    
   7420.000       1263.000    
   7460.000       1268.000    
   7500.000       1267.000    
   7540.000       1257.000    
   7580.000       1238.000    
   7620.000       1214.000    
   7660.000       1195.000    
   7700.000       1182.000    
   7740.000       1165.000    
   7780.000       1146.000    
   7820.000       1126.000    
   7860.000       1108.000    
   7900.000       1091.000    
   7940.000       1082.000    
   8000.000       1091.000    
   8100.000       1137.000    
   8200.000       1147.000    
   8300.000       1163.000    
   8400.000       1121.000    
   8500.000       1054.000    
   8600.000       1097.000    
   8700.000       1141.000    
   8800.000       1161.000    
   8900.000       1133.000    
   9000.000       1128.000    
   9100.000       1163.000    
   9200.000       1141.000    
   9300.000       1101.000    
   9400.000       1049.000    
   9500.000       1072.000    
   9600.000       1071.000    
   9700.000       1059.000    
   9800.000       1063.000    
   9900.000       1084.000    
   10000.00       1144.000    
   10025.00       1088.544    
   10075.00       1075.261    
   10125.00       1089.593    
   10175.00       1077.358    
   10225.00       1081.903    
   10275.00       1085.748    
   10325.00       1072.814    
   10375.00       1065.124    
   10425.00       1068.969    
   10475.00       1052.190    
   10525.00       1040.304    
   10575.00       1017.583    
   10625.00       1006.397    
   10675.00       999.0557    
   10725.00       1006.047    
   10775.00       998.0070    
   10825.00       982.6262    
   10875.00       977.0331    
   10925.00       975.2853    
   10975.00       959.2054    
   11025.00       949.4175    
   11075.00       931.5897    
   11125.00       930.5411    
   11175.00       923.5498    
   11225.00       923.5498    
   11275.00       913.7620    
   11325.00       912.3637    
   11375.00       905.3724    
   11425.00       896.2838    
   11475.00       905.3724    
   11525.00       902.5759    
   11575.00       891.3898    
   11625.00       878.4560    
   11675.00       877.4072    
   11725.00       878.8055    
   11775.00       859.9290    
   11825.00       849.4421    
   11875.00       834.7604    
   11925.00       846.2960    
   11975.00       819.0300    
   12025.00       834.7604    
   12075.00       827.0699    
   12125.00       827.4195    
   12175.00       828.4682    
   12225.00       822.5256    
   12275.00       816.2334    
   12325.00       810.2908    
   12375.00       807.4943    
   12425.00       795.6091    
   12475.00       792.4630    
   12525.00       785.1222    
   12575.00       781.6265    
   12625.00       776.7326    
   12675.00       769.7413    
   12725.00       769.7413    
   12775.00       769.3917    
   12825.00       745.9709    
   12875.00       755.4092    
   12925.00       746.6700    
   12975.00       753.3118    
   13025.00       743.5240    
   13075.00       744.5727    
   13125.00       728.8423    
   13175.00       725.6962    
   13225.00       724.6475    
   13275.00       711.3641    
   13325.00       712.4127    
   13375.00       704.0232    
   13425.00       704.7223    
   13475.00       697.3814    
   13525.00       692.8371    
   13575.00       680.6024    
   13625.00       677.8058    
   13675.00       681.3015    
   13725.00       684.0980    
   13775.00       682.0006    
   13825.00       682.3502    
   13875.00       675.0093    
   13925.00       635.5085    
   13975.00       630.9642    
   14025.00       623.9728    
   14075.00       629.2164    
   14125.00       622.9242    
   14175.00       628.5173    
   14225.00       621.5259    
   14275.00       613.1364    
   14325.00       625.7207    
   14375.00       628.5173    
   14425.00       615.2338    
   14475.00       627.1190    
   14525.00       621.5259    
   14570.00       625.3712    
   14620.00       607.5433    
   14675.00       604.7468    
   14725.00       599.1538    
   14775.00       604.3973    
   14825.00       607.5433    
   14875.00       602.9990    
   14925.00       618.0303    
   14975.00       613.4860    
   15025.00       606.4946    
   15075.00       608.5920    
   15125.00       619.7781    
   15175.00       622.5746    
   15225.00       622.5746    
   15275.00       627.8181    
   15325.00       625.7207    
   15375.00       623.9728    
   15425.00       619.7781    
   15475.00       621.5259    
   15525.00       616.9816    
   15575.00       597.7555    
   15625.00       600.5521    
   15675.00       600.5521    
   15725.00       615.9329    
   15775.00       576.0825    
   15825.00       573.6356    
   15875.00       576.4321    
   15925.00       596.3572    
   15975.00       581.6756    
   16050.00       578.1799    
   16150.00       591.8129    
   16250.00       569.4408    
   16350.00       594.2599    
   16450.00       563.8477    
   16550.00       584.8217    
   16650.00       566.9938    
   16750.00       570.4895    
   16850.00       559.3034    
   16950.00       562.0999    
   17050.00       552.6617    
   17150.00       544.2722    
   17250.00       535.5330    
   17350.00       518.7540    
   17450.00       513.1609    
   17550.00       502.3244    
   17650.00       491.8375    
   17750.00       478.2044    
   17850.00       469.8149    
   17950.00       456.8810    
   18050.00       443.9471    
   18150.00       436.6062    
   18250.00       429.9645    
   18350.00       422.9732    
   18450.00       414.2341    
   18550.00       408.9906    
   18650.00       397.4550    
   18750.00       389.4150    
   18850.00       386.9681    
   18950.00       374.0341    
   19050.00       377.8794    
   19150.00       370.8881    
   19250.00       366.3438    
   19350.00       357.2551    
   19450.00       349.3549    
   19550.00       347.0128    
   19650.00       339.8467    
   19750.00       330.3386    
   19850.00       326.4934    
   19950.00       322.7181    
   20050.00       321.1450    
   20150.00       317.1250    
   20250.00       309.7842    
   20350.00       306.6731    
   20450.00       306.6381    
   20550.00       302.4783    
   20650.00       298.3884    
   20750.00       296.0113    
   20850.00       292.4458    
   20950.00       288.0762    
   21050.00       287.4470    
   21150.00       283.2173    
   21250.00       279.7566    
   21350.00       278.1836    
   21450.00       274.7228    
   21550.00       271.0874    
   21650.00       266.2634    
   21750.00       262.7677    
   21850.00       260.0411    
   21950.00       257.2446    
   22050.00       251.2321    
   22150.00       250.9175    
   22250.00       245.0798    
   22350.00       242.2483    
   22450.00       239.1022    
   22550.00       236.4455    
   22650.00       231.5167    
   22750.00       230.3281    
   22850.00       225.5391    
   22950.00       189.8835    
   23050.00       201.9784    
   23150.00       200.8948    
   23250.00       172.1606    
   23350.00       185.0945    
   23450.00       176.7748    
   23550.00       158.2829    
   23650.00       171.1119    
   23750.00       163.2467    
   23850.00       149.5088    
   23950.00       158.4926    
   24050.00       154.6474    
   24150.00       142.0631    
   24250.00       146.9919    
   24350.00       142.7971    
   24450.00       135.0019    
   24550.00       132.4151    
   24650.00       132.6947    
   24750.00       127.1367    
   24850.00       113.6435    
   24950.00       111.0217    
   25050.00       112.7696    
   25150.00       105.3238    
   25250.00       108.4000    
   25350.00       108.0854    
   25450.00       106.0230    
   25550.00       105.2539    
   25650.00       106.0929    
   25750.00       107.1765    
   25850.00       103.4711    
   25950.00       104.4849    
   26050.00       105.0442    
   26150.00       103.1216    
   26250.00       101.4437    
   26350.00       101.7583    
   26450.00       100.8494    
   26550.00       99.45113    
   26650.00       97.70332    
   26750.00       99.20644    
   26850.00       98.01792    
   26950.00       95.74575    
   27050.00       95.99046    
   27150.00       95.04662    
   27250.00       94.55724    
   27350.00       92.59967    
   27450.00       92.63463    
   27550.00       92.14524    
   27650.00       90.78194    
   27750.00       89.31377    
   27850.00       89.13898    
   27950.00       88.82437    
   28050.00       87.84560    
   28150.00       86.55220    
   28250.00       86.02785    
   28350.00       85.67829    
   28450.00       84.59464    
   28550.00       83.75568    
   28650.00       83.02160    
   28750.00       82.25256    
   28850.00       81.51847    
   28950.00       80.78439    
   29050.00       79.94543    
   29150.00       79.31622    
   29250.00       77.98787    
   29350.00       77.84805    
   29450.00       76.90422    
   29550.00       76.20509    
   29650.00       75.71571    
   29750.00       75.01657    
   29850.00       74.17762    
   29950.00       73.40858    
   30050.00       72.81432    
   30150.00       72.49970    
   30250.00       71.80058    
   30350.00       71.13641    
   30450.00       70.92667    
   30550.00       70.33241    
   30650.00       69.80806    
   30750.00       69.49345    
   30850.00       68.79433    
   30950.00       68.47971    
   31050.00       68.23502    
   31150.00       67.29120    
   31250.00       67.11641    
   31350.00       66.66197    
   31450.00       66.13763    
   31550.00       65.54337    
   31650.00       64.94911    
   31750.00       64.63450    
   31850.00       64.18007    
   31950.00       63.86546    
   32100.00       63.09642    
   32300.00       62.15259    
   32500.00       61.27868    
   32700.00       60.29990    
   32900.00       59.21625    
   33100.00       58.34234    
   33300.00       57.36356    
   33500.00       56.52460    
   33700.00       55.51086    
   33900.00       54.46217    
   34100.00       53.41348    
   34300.00       52.60948    
   34500.00       51.66565    
   34700.00       50.65192    
   34900.00       49.77800    
   35100.00       48.86914    
   35300.00       47.85540    
   35500.00       47.05140    
   35700.00       46.10758    
   35900.00       45.26862    
   36100.00       44.49958    
   36300.00       43.62567    
   36500.00       42.71680    
   36700.00       41.91280    
   36900.00       40.96898    
   37100.00       40.13002    
   37300.00       39.53576    
   37500.00       38.59194    
   37700.00       38.06759    
   37900.00       37.29855    
   38100.00       36.63437    
   38300.00       36.00516    
   38500.00       35.34098    
   38700.00       34.55796    
   38900.00       33.93923    
   39100.00       33.35546    
   39300.00       32.72974    
   39500.00       31.98516    
   39700.00       31.41537    
   39900.00       30.67779    
   40100.00       30.21986    
   40300.00       29.73047    
   40500.00       29.11174    
   40700.00       28.59788    
   40900.00       28.11199    
   41100.00       27.62609    
   41300.00       27.17166    
   41500.00       26.66829    
   41700.00       26.20686    
   41900.00       25.72096    
   42100.00       25.23158    
   42300.00       24.91697    
   42500.00       24.43107    
   42700.00       24.06403    
   42900.00       22.86852    
   43100.00       21.64155    
   43300.00       21.63106    
   43500.00       20.63130    
   43700.00       20.08598    
   43900.00       19.65952    
   44100.00       18.87649    
   44300.00       18.58635    
   44500.00       18.26126    
   44700.00       17.64253    
   44900.00       17.58660    
   45100.00       17.18809    
   45300.00       16.75463    
   45500.00       16.66025    
   45700.00       16.43303    
   45900.00       15.92267    
   46100.00       15.93665    
   46300.00       15.62903    
   46500.00       15.45076    
   46700.00       15.34938    
   46900.00       15.06274    
   47100.00       14.79008    
   47300.00       14.78309    
   47500.00       14.46149    
   47700.00       14.27972    
   47900.00       14.12591    
   48100.00       13.79033    
   48300.00       13.82528    
   48500.00       13.55612    
   48700.00       13.30093    
   48900.00       13.11916    
   49100.00       12.94438    
   49300.00       12.76960    
   49500.00       12.54238    
   49700.00       12.47247    
   49900.00       12.27671    
   50100.00       12.11941    
   50300.00       11.95511    
   50500.00       11.72090    
   50700.00       11.61953    
   50900.00       11.45873    
   51100.00       11.26647    
   51300.00       11.18257    
   51500.00       10.98682    
   51700.00       10.92040    
   51900.00       10.73863    
   52100.00       10.61977    
   52300.00       10.43800    
   52500.00       10.35410    
   52700.00       10.30167    
   52900.00       10.07096    
   53100.00       9.934628    
   53300.00       9.857723    
   53500.00       9.731879    
   53700.00       9.627010    
   53900.00       9.515149    
   54100.00       9.403289    
   54300.00       9.235497    
   54500.00       9.186559    
   54700.00       9.032750    
   54900.00       8.941863    
   55100.00       8.816021    
   55300.00       8.830003    
   55500.00       8.602786    
   55700.00       8.578317    
   55900.00       8.438490    
   56100.00       8.375569    
   56300.00       8.221761    
   56500.00       8.176317    
   56700.00       8.078439    
   56900.00       7.935117    
   57100.00       7.903656    
   57300.00       7.802283    
   57500.00       7.711396    
   57700.00       7.610023    
   57900.00       7.554092    
   58100.00       7.438735    
   58300.00       7.358336    
   58500.00       7.277936    
   58700.00       7.166075    
   58900.00       7.092667    
   59100.00       7.015762    
   59300.00       6.942354    
   59500.00       6.844476    
   59700.00       6.788545    
   59900.00       6.708146    
   60100.00       6.631241    
   60300.00       6.554337    
   60500.00       6.459955    
   60700.00       6.390041    
   60900.00       6.313138    
   61100.00       6.232738    
   61300.00       6.173311    
   61500.00       6.110390    
   61700.00       6.050964    
   61900.00       5.977555    
   62100.00       5.918129    
   62300.00       5.837729    
   62500.00       5.757329    
   62700.00       5.694408    
   62900.00       5.634982    
   63100.00       5.568565    
   63300.00       5.519626    
   63500.00       5.449713    
   63700.00       5.404269    
   63900.00       5.323870    
   64200.00       5.243470    
   64600.00       5.121122    
   65000.00       5.009261    
   65400.00       4.897400    
   65800.00       4.796027    
   66200.00       4.684166    
   66600.00       4.582792    
   67000.00       4.484914    
   67400.00       4.383541    
   67800.00       4.289158    
   68200.00       4.198271    
   68600.00       4.110880    
   69000.00       4.019993    
   69400.00       3.936098    
   69800.00       3.852202    
   70200.00       3.768307    
   70600.00       3.691403    
   71000.00       3.614498    
   71400.00       3.537594    
   71800.00       3.463836    
   72200.00       3.392874    
   72600.00       3.322262    
   73000.00       3.254097    
   73400.00       3.186981    
   73800.00       3.123010    
   74200.00       3.056943    
   74600.00       2.995070    
   75000.00       2.935993    
   75400.00       2.876567    
   75800.00       2.822035    
   76200.00       2.766105    
   76600.00       2.711573    
   77000.00       2.658090    
   77400.00       2.606704    
   77800.00       2.556017    
   78200.00       2.506378    
   78600.00       2.458488    
   79000.00       2.411297    
   79400.00       2.365504    
   79800.00       2.320760    
   80200.00       2.275316    
   80600.00       2.233019    
   81000.00       2.192120    
   81400.00       2.150522    
   81800.00       2.111370    
   82200.00       2.072569    
   82600.00       2.034466    
   83000.00       1.997063    
   83400.00       1.960009    
   83800.00       1.924353    
   84200.00       1.890446    
   84600.00       1.856188    
   85000.00       1.823329    
   85400.00       1.790820    
   85800.00       1.759009    
   86200.00       1.728248    
   86600.00       1.698185    
   87000.00       1.668123    
   87400.00       1.639109    
   87800.00       1.610794    
   88200.00       1.582479    
   88600.00       1.555213    
   89000.00       1.528646    
   89400.00       1.503128    
   89800.00       1.476561    
   90200.00       1.452441    
   90600.00       1.428321    
   91000.00       1.403152    
   91400.00       1.380431    
   91800.00       1.357709    
   92200.00       1.335337    
   92600.00       1.313314    
   93000.00       1.291991    
   93400.00       1.270667    
   93800.00       1.250043    
   94200.00       1.229768    
   94600.00       1.209843    
   95000.00       1.190268    
   95400.00       1.171391    
   95800.00       1.152864    
   96200.00       1.134337    
   96600.00       1.116509    
   97000.00       1.098682    
   97400.00       1.080504    
