#  Scd SED of Coleman, Wu, and Weedman (1980)
#  Extended below 1400 A and beyond 10000 A by 
#  Bolzonella, Miralles, and Pello (2000) using evolutionary models
#  of Bruzual and Charlot (1993)
#
#  Angstroms     Flux/A
#
   91.00000       1.868571    
   94.00000       2.357140    
   96.00000       2.723722    
   98.00000       3.123460    
   100.0000       3.557604    
   102.0000       4.024904    
   104.0000       4.524732    
   106.0000       5.057716    
   108.0000       5.621353    
   110.0000       6.216268    
   114.0000       7.494303    
   118.0000       8.870552    
   121.0000       9.965296    
   125.0000       11.49168    
   127.0000       12.27990    
   128.0000       12.68026    
   131.0000       13.90012    
   132.0000       14.30674    
   134.0000       15.13874    
   137.0000       16.38988    
   140.0000       17.64727    
   143.0000       18.91092    
   147.0000       20.58744    
   151.0000       22.24519    
   155.0000       23.87167    
   159.0000       25.45436    
   162.0000       26.61166    
   166.0000       28.10051    
   170.0000       29.53306    
   173.0000       30.55899    
   177.0000       31.86017    
   180.0000       32.79227    
   182.0000       33.39281    
   186.0000       34.52509    
   191.0000       35.83878    
   194.0000       36.56444    
   198.0000       37.46526    
   202.0000       38.28475    
   205.0000       38.85402    
   210.0000       39.71105    
   216.0000       40.58684    
   220.0000       41.08104    
   223.0000       41.41259    
   227.0000       41.80044    
   230.0000       42.08195    
   234.0000       42.50108    
   240.0000       42.92021    
   246.0000       43.32057    
   252.0000       44.63427    
   257.0000       46.87380    
   260.0000       46.27951    
   264.0000       56.90791    
   269.0000       59.59785    
   274.0000       61.76231    
   279.0000       54.44942    
   284.0000       65.12161    
   290.0000       70.50150    
   296.0000       65.49696    
   301.0000       63.49514    
   308.0000       69.62570    
   318.0000       68.43712    
   328.0000       72.37820    
   338.0000       70.50150    
   348.0000       68.06178    
   357.0000       92.70915    
   366.0000       143.3801    
   375.0000       140.4400    
   385.0000       112.7899    
   395.0000       167.5896    
   405.0000       207.8136    
   414.0000       205.0611    
   422.0000       184.8553    
   430.0000       175.7846    
   441.0000       203.2470    
   451.0000       205.4990    
   460.0000       178.8499    
   470.0000       180.6014    
   480.0000       201.8707    
   490.0000       167.5271    
   500.0000       207.0004    
   506.0000       172.9695    
   512.0000       298.9589    
   520.0000       281.5681    
   530.0000       255.7321    
   540.0000       209.0022    
   550.0000       204.0602    
   560.0000       264.9280    
   570.0000       293.8918    
   580.0000       281.5681    
   590.0000       284.0078    
   600.0000       232.1482    
   610.0000       229.2081    
   620.0000       286.0096    
   630.0000       266.9924    
   640.0000       287.9489    
   650.0000       274.1238    
   658.0000       248.2879    
   665.0000       277.8773    
   675.0000       289.2626    
   685.0000       241.3441    
   695.0000       281.0051    
   705.0000       220.1373    
   716.0000       284.3206    
   726.0000       282.8192    
   735.0000       280.8800    
   745.0000       268.7440    
   755.0000       264.1147    
   765.0000       235.7765    
   775.0000       259.2979    
   785.0000       237.6532    
   795.0000       251.9162    
   805.0000       253.3550    
   815.0000       251.4157    
   825.0000       253.6052    
   835.0000       195.3648    
   845.0000       242.2199    
   855.0000       236.0267    
   865.0000       242.1573    
   875.0000       240.9062    
   885.0000       239.9053    
   895.0000       238.4665    
   905.0000       230.2090    
   915.0000       237.4030    
   925.0000       615.6839    
   935.0000       1015.297    
   945.0000       1450.066    
   955.0000       1742.206    
   965.0000       1891.717    
   975.0000       570.4553    
   985.0000       1465.080    
   995.0000       1442.559    
   1005.000       1899.850    
   1015.000       1892.343    
   1025.000       1132.278    
   1035.000       1513.874    
   1045.000       2295.834    
   1055.000       2193.866    
   1065.000       1779.741    
   1075.000       2000.566    
   1085.000       1672.768    
   1095.000       2033.721    
   1105.000       1926.123    
   1115.000       1851.055    
   1125.000       1616.467    
   1135.000       1969.288    
   1145.000       1809.768    
   1155.000       1848.553    
   1165.000       1842.923    
   1175.000       1229.866    
   1185.000       1737.202    
   1195.000       1351.227    
   1205.000       1076.602    
   1215.000       815.7405    
   1225.000       1286.167    
   1235.000       1694.038    
   1245.000       1785.371    
   1255.000       1704.672    
   1265.000       1543.276    
   1275.000       1839.795    
   1285.000       1885.461    
   1295.000       1542.650    
   1305.000       1525.134    
   1315.000       1809.768    
   1325.000       1717.184    
   1335.000       1552.659    
   1345.000       1749.088    
   1355.000       1685.280    
   1365.000       1521.381    
   1375.000       1552.034    
   1385.000       1541.399    
   1395.000       1242.378    
   1405.000       1253.638    
   1415.000       1402.523    
   1425.000       1394.391    
   1435.000       1403.774    
   1442.000       1451.318    
   1447.000       1460.075    
   1455.000       1406.902    
   1465.000       1300.556    
   1475.000       1296.802    
   1485.000       1306.811    
   1495.000       1306.186    
   1505.000       1228.615    
   1512.000       1102.876    
   1517.000       1162.305    
   1525.000       1129.776    
   1535.000       969.6302    
   1545.000       981.5160    
   1555.000       940.8540    
   1565.000       991.5250    
   1575.000       1052.205    
   1585.000       1087.237    
   1595.000       1095.995    
   1605.000       1066.593    
   1615.000       1055.333    
   1625.000       1008.415    
   1635.000       1060.963    
   1645.000       1066.593    
   1655.000       1001.534    
   1665.000       1062.840    
   1672.000       956.4932    
   1677.000       1076.602    
   1685.000       1094.118    
   1695.000       1027.182    
   1705.000       986.5204    
   1715.000       930.2194    
   1725.000       915.2057    
   1735.000       965.2512    
   1745.000       940.2285    
   1755.000       980.8904    
   1765.000       912.0779    
   1775.000       911.4524    
   1785.000       925.2149    
   1800.000       964.0000    
   1900.000       924.0000    
   2000.000       855.0000    
   2100.000       780.0000    
   2200.000       718.0000    
   2300.000       672.0000    
   2400.000       632.0000    
   2500.000       600.0000    
   2600.000       579.0000    
   2700.000       570.0000    
   2800.000       571.0000    
   2900.000       579.0000    
   2940.000       583.0000    
   2980.000       588.0000    
   3020.000       593.0000    
   3060.000       598.0000    
   3100.000       603.0000    
   3140.000       608.0000    
   3180.000       612.0000    
   3220.000       615.0000    
   3260.000       617.0000    
   3300.000       620.0000    
   3340.000       625.0000    
   3380.000       631.0000    
   3420.000       637.0000    
   3460.000       643.0000    
   3500.000       646.0000    
   3540.000       656.0000    
   3580.000       642.0000    
   3620.000       622.0000    
   3660.000       638.0000    
   3700.000       805.0000    
   3740.000       884.0000    
   3780.000       771.0000    
   3820.000       776.0000    
   3860.000       839.0000    
   3900.000       851.0000    
   3940.000       831.0000    
   3980.000       878.0000    
   4020.000       968.0000    
   4060.000       967.0000    
   4100.000       914.0000    
   4140.000       935.0000    
   4180.000       975.0000    
   4220.000       976.0000    
   4260.000       953.0000    
   4300.000       925.0000    
   4340.000       935.0000    
   4380.000       962.0000    
   4420.000       976.0000    
   4460.000       997.0000    
   4500.000       1005.000    
   4540.000       999.0000    
   4580.000       1006.000    
   4620.000       1008.000    
   4660.000       1004.000    
   4700.000       994.0000    
   4740.000       986.0000    
   4780.000       981.0000    
   4820.000       987.0000    
   4860.000       1015.000    
   4900.000       982.0000    
   4940.000       980.0000    
   4980.000       1095.000    
   5020.000       1074.000    
   5060.000       940.0000    
   5100.000       908.0000    
   5140.000       900.0000    
   5180.000       886.0000    
   5220.000       886.0000    
   5260.000       884.0000    
   5300.000       886.0000    
   5340.000       860.0000    
   5380.000       856.0000    
   5420.000       895.0000    
   5460.000       912.0000    
   5500.000       885.0000    
   5540.000       856.0000    
   5580.000       852.0000    
   5620.000       847.0000    
   5660.000       848.0000    
   5700.000       849.0000    
   5740.000       846.0000    
   5780.000       842.0000    
   5820.000       838.0000    
   5860.000       833.0000    
   5900.000       827.0000    
   5940.000       822.0000    
   5980.000       817.0000    
   6020.000       811.0000    
   6060.000       806.0000    
   6100.000       800.0000    
   6140.000       795.0000    
   6180.000       790.0000    
   6220.000       785.0000    
   6260.000       781.0000    
   6300.000       776.0000    
   6340.000       771.0000    
   6380.000       766.0000    
   6420.000       761.0000    
   6460.000       757.0000    
   6500.000       752.0000    
   6540.000       747.0000    
   6580.000       743.0000    
   6620.000       738.0000    
   6660.000       733.0000    
   6700.000       729.0000    
   6740.000       724.0000    
   6780.000       719.0000    
   6820.000       715.0000    
   6860.000       710.0000    
   6900.000       706.0000    
   6940.000       702.0000    
   6980.000       698.0000    
   7020.000       694.0000    
   7060.000       690.0000    
   7100.000       685.0000    
   7140.000       681.0000    
   7180.000       677.0000    
   7220.000       673.0000    
   7260.000       669.0000    
   7300.000       665.0000    
   7340.000       661.0000    
   7380.000       657.0000    
   7420.000       654.0000    
   7460.000       650.0000    
   7500.000       647.0000    
   7540.000       643.0000    
   7580.000       639.0000    
   7620.000       635.0000    
   7660.000       632.0000    
   7700.000       628.0000    
   7740.000       625.0000    
   7780.000       621.0000    
   7820.000       618.0000    
   7860.000       614.0000    
   7900.000       611.0000    
   7940.000       607.0000    
   8000.000       602.0000    
   8100.000       594.0000    
   8200.000       586.0000    
   8300.000       577.0000    
   8400.000       569.0000    
   8500.000       561.0000    
   8600.000       553.0000    
   8700.000       545.0000    
   8800.000       537.0000    
   8900.000       530.0000    
   9000.000       522.0000    
   9100.000       515.0000    
   9200.000       507.0000    
   9300.000       500.0000    
   9400.000       493.0000    
   9500.000       486.0000    
   9600.000       479.0000    
   9700.000       473.0000    
   9800.000       467.0000    
   9900.000       461.0000    
   10000.00       461.0000    
   10025.00       456.5629    
   10075.00       448.5990    
   10125.00       456.2216    
   10175.00       450.6469    
   10225.00       450.9882    
   10275.00       450.9882    
   10325.00       444.0482    
   10375.00       440.2937    
   10425.00       440.6350    
   10475.00       434.2639    
   10525.00       431.3058    
   10575.00       423.7969    
   10625.00       420.0424    
   10675.00       413.6713    
   10725.00       414.8090    
   10775.00       410.8270    
   10825.00       404.1145    
   10875.00       401.1565    
   10925.00       395.3542    
   10975.00       391.8272    
   11025.00       391.0309    
   11075.00       386.1387    
   11125.00       384.0908    
   11175.00       380.5639    
   11225.00       379.7675    
   11275.00       374.3065    
   11325.00       373.0551    
   11375.00       370.4383    
   11425.00       366.2288    
   11475.00       369.4144    
   11525.00       367.4803    
   11575.00       362.5881    
   11625.00       357.1271    
   11675.00       356.1031    
   11725.00       357.3546    
   11775.00       349.9595    
   11825.00       346.4326    
   11875.00       340.7441    
   11925.00       345.2949    
   11975.00       333.9178    
   12025.00       339.1513    
   12075.00       335.1693    
   12125.00       334.7142    
   12175.00       334.9418    
   12225.00       331.9837    
   12275.00       329.1395    
   12325.00       326.5227    
   12375.00       325.1575    
   12425.00       321.1755    
   12475.00       319.6964    
   12525.00       316.3971    
   12575.00       314.6905    
   12625.00       312.6427    
   12675.00       309.4571    
   12725.00       309.0020    
   12775.00       307.9781    
   12825.00       295.2357    
   12875.00       301.8344    
   12925.00       298.4213    
   12975.00       300.8105    
   13025.00       296.4872    
   13075.00       297.0560    
   13125.00       291.2537    
   13175.00       289.7747    
   13225.00       289.4334    
   13275.00       284.3137    
   13325.00       284.9963    
   13375.00       281.6970    
   13425.00       282.1520    
   13475.00       279.4215    
   13525.00       277.7150    
   13575.00       273.0504    
   13625.00       271.9126    
   13675.00       272.7090    
   13725.00       273.1641    
   13775.00       272.1402    
   13825.00       272.0264    
   13875.00       269.0684    
   13925.00       257.9188    
   13975.00       256.5536    
   14025.00       253.1404    
   14075.00       254.7332    
   14125.00       251.5476    
   14175.00       253.3680    
   14225.00       249.9548    
   14275.00       246.5417    
   14325.00       250.7512    
   14375.00       251.4339    
   14425.00       245.1765    
   14475.00       249.7273    
   14525.00       246.7693    
   14570.00       248.1345    
   14620.00       242.5597    
   14675.00       241.4220    
   14725.00       238.5777    
   14775.00       239.9430    
   14825.00       240.5119    
   14875.00       238.4640    
   14925.00       243.4699    
   14975.00       240.9669    
   15025.00       238.6915    
   15075.00       238.1227    
   15125.00       241.6496    
   15175.00       242.2184    
   15225.00       241.5358    
   15275.00       243.0148    
   15325.00       241.5358    
   15375.00       241.4220    
   15425.00       239.7155    
   15475.00       240.0568    
   15525.00       237.6676    
   15575.00       229.3623    
   15625.00       231.5239    
   15675.00       230.2725    
   15725.00       235.3922    
   15775.00       220.7157    
   15825.00       220.1469    
   15875.00       219.1229    
   15925.00       226.7456    
   15975.00       221.6259    
   16050.00       219.9193    
   16150.00       223.1049    
   16250.00       216.0511    
   16350.00       223.6737    
   16450.00       211.2727    
   16550.00       219.0091    
   16650.00       211.6140    
   16750.00       212.4104    
   16850.00       206.4943    
   16950.00       208.5422    
   17050.00       204.2189    
   17150.00       201.6022    
   17250.00       197.9615    
   17350.00       191.1353    
   17450.00       190.6802    
   17550.00       186.9257    
   17650.00       184.0815    
   17750.00       179.5306    
   17850.00       177.3690    
   17950.00       173.6145    
   18050.00       169.1774    
   18150.00       166.1056    
   18250.00       164.0578    
   18350.00       161.5548    
   18450.00       158.5967    
   18550.00       157.1177    
   18650.00       153.1357    
   18750.00       149.6088    
   18850.00       148.9262    
   18950.00       143.5790    
   19050.00       144.8305    
   19150.00       141.7586    
   19250.00       139.8245    
   19350.00       135.8425    
   19450.00       132.3156    
   19550.00       132.0881    
   19650.00       129.5851    
   19750.00       126.2858    
   19850.00       124.9205    
   19950.00       123.3277    
   20050.00       122.6451    
   20150.00       121.0523    
   20250.00       117.9805    
   20350.00       116.3877    
   20450.00       116.2739    
   20550.00       114.3398    
   20650.00       112.4626    
   20750.00       111.2680    
   20850.00       109.6183    
   20950.00       107.7184    
   21050.00       107.2747    
   21150.00       105.4316    
   21250.00       103.8957    
   21350.00       103.1675    
   21450.00       101.6544    
   21550.00       100.1071    
   21650.00       97.84304    
   21750.00       96.79635    
   21850.00       95.76103    
   21950.00       94.69158    
   22050.00       92.43892    
   22150.00       92.24551    
   22250.00       90.04974    
   22350.00       88.95753    
   22450.00       87.76294    
   22550.00       86.73899    
   22650.00       84.93004    
   22750.00       84.50909    
   22850.00       82.71150    
   22950.00       70.01466    
   23050.00       74.44035    
   23150.00       73.93976    
   23250.00       63.68900    
   23350.00       68.41049    
   23450.00       65.47520    
   23550.00       58.55793    
   23650.00       63.35906    
   23750.00       60.53754    
   23850.00       55.40647    
   23950.00       58.89923    
   24050.00       57.62500    
   24150.00       53.00590    
   24250.00       55.16755    
   24350.00       53.79092    
   24450.00       51.08317    
   24550.00       50.51431    
   24650.00       50.86700    
   24750.00       48.93290    
   24850.00       44.06350    
   24950.00       43.31261    
   25050.00       44.16589    
   25150.00       41.23061    
   25250.00       42.49346    
   25350.00       42.44795    
   25450.00       41.68568    
   25550.00       41.29887    
   25650.00       41.51503    
   25750.00       41.94736    
   25850.00       40.37732    
   25950.00       40.78690    
   26050.00       41.01444    
   26150.00       40.16116    
   26250.00       39.45578    
   26350.00       39.76296    
   26450.00       39.46715    
   26550.00       38.89830    
   26650.00       38.21567    
   26750.00       38.77315    
   26850.00       38.40908    
   26950.00       37.51029    
   27050.00       37.66957    
   27150.00       37.32826    
   27250.00       37.18036    
   27350.00       36.36121    
   27450.00       36.42947    
   27550.00       36.17917    
   27650.00       35.72409    
   27750.00       35.15524    
   27850.00       35.16661    
   27950.00       35.07559    
   28050.00       34.68877    
   28150.00       34.14267    
   28250.00       33.96064    
   28350.00       33.82411    
   28450.00       33.40316    
   28550.00       33.05047    
   28650.00       32.73191    
   28750.00       32.35646    
   28850.00       32.15168    
   28950.00       31.86725    
   29050.00       31.53732    
   29150.00       31.29840    
   29250.00       30.76367    
   29350.00       30.71817    
   29450.00       30.31997    
   29550.00       30.04692    
   29650.00       29.85350    
   29750.00       29.58046    
   29850.00       29.22776    
   29950.00       28.93196    
   30050.00       28.67029    
   30150.00       28.51101    
   30250.00       28.19245    
   30350.00       27.81701    
   30450.00       27.74874    
   30550.00       27.50982    
   30650.00       27.27090    
   30750.00       27.10025    
   30850.00       26.77031    
   30950.00       26.58828    
   31050.00       26.45175    
   31150.00       26.04218    
   31250.00       25.92841    
   31350.00       25.71224    
   31450.00       25.47332    
   31550.00       25.20027    
   31650.00       24.92722    
   31750.00       24.77932    
   31850.00       24.55178    
   31950.00       24.36975    
   32100.00       23.99430    
   32300.00       23.53922    
   32500.00       23.10688    
   32700.00       22.65180    
   32900.00       22.13983    
   33100.00       21.75301    
   33300.00       21.33206    
   33500.00       20.95661    
   33700.00       20.52428    
   33900.00       20.09196    
   34100.00       19.65963    
   34300.00       19.31831    
   34500.00       18.95424    
   34700.00       18.55605    
   34900.00       18.19198    
   35100.00       17.83929    
   35300.00       17.44109    
   35500.00       17.12253    
   35700.00       16.75846    
   35900.00       16.42853    
   36100.00       16.13272    
   36300.00       15.81417    
   36500.00       15.46148    
   36700.00       15.15429    
   36900.00       14.79023    
   37100.00       14.47167    
   37300.00       14.24413    
   37500.00       13.86868    
   37700.00       13.69803    
   37900.00       13.42498    
   38100.00       13.18606    
   38300.00       12.95851    
   38500.00       12.71960    
   38700.00       12.42379    
   38900.00       12.20763    
   39100.00       11.99146    
   39300.00       11.76392    
   39500.00       11.49087    
   39700.00       11.29177    
   39900.00       11.01986    
   40100.00       10.85375    
   40300.00       10.68082    
   40500.00       10.44759    
   40700.00       10.28148    
   40900.00       10.10514    
   41100.00       9.931068    
   41300.00       9.768376    
   41500.00       9.581792    
   41700.00       9.403172    
   41900.00       9.238204    
   42100.00       9.060720    
   42300.00       8.950363    
   42500.00       8.770605    
   42700.00       8.639769    
   42900.00       8.185822    
   43100.00       7.736427    
   43300.00       7.745528    
   43500.00       7.370084    
   43700.00       7.164159    
   43900.00       7.011705    
   44100.00       6.704524    
   44300.00       6.621471    
   44500.00       6.495185    
   44700.00       6.252853    
   44900.00       6.256266    
   45100.00       6.101537    
   45300.00       5.929743    
   45500.00       5.910403    
   45700.00       5.827350    
   45900.00       5.632801    
   46100.00       5.652142    
   46300.00       5.533820    
   46500.00       5.458732    
   46700.00       5.425738    
   46900.00       5.331308    
   47100.00       5.228914    
   47300.00       5.235741    
   47500.00       5.121969    
   47700.00       5.052569    
   47900.00       4.996821    
   48100.00       4.877362    
   48300.00       4.895565    
   48500.00       4.798860    
   48700.00       4.706706    
   48900.00       4.646407    
   49100.00       4.580420    
   49300.00       4.517846    
   49500.00       4.437068    
   49700.00       4.414314    
   49900.00       4.344914    
   50100.00       4.292579    
   50300.00       4.233418    
   50500.00       4.146952    
   50700.00       4.112821    
   50900.00       4.054798    
   51100.00       3.985398    
   51300.00       3.947853    
   51500.00       3.885279    
   51700.00       3.868213    
   51900.00       3.801089    
   52100.00       3.756718    
   52300.00       3.694144    
   52500.00       3.664563    
   52700.00       3.650911    
   52900.00       3.563307    
   53100.00       3.513248    
   53300.00       3.488218    
   53500.00       3.442710    
   53700.00       3.404028    
   53900.00       3.366483    
   54100.00       3.326663    
   54300.00       3.266365    
   54500.00       3.251575    
   54700.00       3.193551    
   54900.00       3.165109    
   55100.00       3.117325    
   55300.00       3.128702    
   55500.00       3.043374    
   55700.00       3.037685    
   55900.00       2.985350    
   56100.00       2.967147    
   56300.00       2.909124    
   56500.00       2.895472    
   56700.00       2.860202    
   56900.00       2.806730    
   57100.00       2.797628    
   57300.00       2.763497    
   57500.00       2.730503    
   57700.00       2.694097    
   57900.00       2.675894    
   58100.00       2.634936    
   58300.00       2.606493    
   58500.00       2.578050    
   58700.00       2.535955    
   58900.00       2.509788    
   59100.00       2.480207    
   59300.00       2.458591    
   59500.00       2.423322    
   59700.00       2.405119    
   59900.00       2.376676    
   60100.00       2.349371    
   60300.00       2.320928    
   60500.00       2.286797    
   60700.00       2.262905    
   60900.00       2.234462    
   61100.00       2.206019    
   61300.00       2.186678    
   61500.00       2.163924    
   61700.00       2.144583    
   61900.00       2.117278    
   62100.00       2.096799    
   62300.00       2.067219    
   62500.00       2.038776    
   62700.00       2.017159    
   62900.00       1.995543    
   63100.00       1.971651    
   63300.00       1.955723    
   63500.00       1.930694    
   63700.00       1.914766    
   63900.00       1.885185    
   64200.00       1.857880    
   64600.00       1.813509    
   65000.00       1.773690    
   65400.00       1.733870    
   65800.00       1.698601    
   66200.00       1.659919    
   66600.00       1.623512    
   67000.00       1.588243    
   67400.00       1.552974    
   67800.00       1.518843    
   68200.00       1.485849    
   68600.00       1.455131    
   69000.00       1.423275    
   69400.00       1.392557    
   69800.00       1.362976    
   70200.00       1.333396    
   70600.00       1.306091    
   71000.00       1.278786    
   71400.00       1.252618    
   71800.00       1.225313    
   72200.00       1.200284    
   72600.00       1.175254    
   73000.00       1.151362    
   73400.00       1.127243    
   73800.00       1.104602    
   74200.00       1.081052    
   74600.00       1.058070    
   75000.00       1.037136    
   75400.00       1.016885    
   75800.00      0.9975439    
   76200.00      0.9778616    
   76600.00      0.9585205    
   77000.00      0.9394069    
   77400.00      0.9210898    
   77800.00      0.9032278    
   78200.00      0.8854796    
   78600.00      0.8685277    
   79000.00      0.8518034    
   79400.00      0.8354203    
   79800.00      0.8196062    
   80200.00      0.8034506    
   80600.00      0.7883192    
   81000.00      0.7738702    
   81400.00      0.7590799    
   81800.00      0.7453137    
   82200.00      0.7314336    
   82600.00      0.7178949    
   83000.00      0.7046974    
   83400.00      0.6916138    
   83800.00      0.6788715    
   84200.00      0.6669255    
   84600.00      0.6547520    
   85000.00      0.6430336    
   85400.00      0.6315427    
   85800.00      0.6203932    
   86200.00      0.6094711    
   86600.00      0.5986629    
   87000.00      0.5881960    
   87400.00      0.5778428    
   87800.00      0.5677172    
   88200.00      0.5577053    
   88600.00      0.5481486    
   89000.00      0.5387056    
   89400.00      0.5296039    
   89800.00      0.5202747    
   90200.00      0.5117419    
   90600.00      0.5032091    
   91000.00      0.4942212    
   91400.00      0.4861434    
   91800.00      0.4781794    
   92200.00      0.4703293    
   92600.00      0.4625928    
   93000.00      0.4549701    
   93400.00      0.4473475    
   93800.00      0.4401799    
   94200.00      0.4328986    
   94600.00      0.4258448    
   95000.00      0.4190185    
   95400.00      0.4121923    
   95800.00      0.4057073    
   96200.00      0.3992224    
   96600.00      0.3928512    
   97000.00      0.3867075    
   97400.00      0.3801088    
