#  Sbc SED of Coleman, Wu, and Weedman (1980)
#  Extended below 1400 A and beyond 10000 A by 
#  Bolzonella, Miralles, and Pello (2000) using evolutionary models
#  of Bruzual and Charlot (1993)
#
#  Angstroms     Flux/A
#
   91.00000      0.7762199    
   94.00000      0.9822993    
   96.00000       1.138061    
   98.00000       1.308252    
   100.0000       1.493613    
   102.0000       1.693772    
   104.0000       1.908731    
   106.0000       2.138489    
   108.0000       2.383047    
   110.0000       2.641294    
   114.0000       3.198855    
   118.0000       3.807103    
   121.0000       4.291778    
   125.0000       4.976243    
   127.0000       5.331424    
   128.0000       5.509016    
   131.0000       6.060287    
   132.0000       6.248977    
   134.0000       6.626358    
   137.0000       7.203528    
   140.0000       7.784398    
   143.0000       8.372667    
   147.0000       9.160727    
   151.0000       9.948786    
   155.0000       10.72945    
   159.0000       11.49901    
   162.0000       12.06508    
   166.0000       12.80504    
   170.0000       13.51910    
   173.0000       14.04077    
   177.0000       14.71414    
   180.0000       15.19882    
   182.0000       15.50960    
   186.0000       16.11637    
   191.0000       16.82673    
   194.0000       17.22631    
   198.0000       17.73688    
   202.0000       18.21046    
   205.0000       18.54344    
   210.0000       19.05771    
   216.0000       19.60899    
   220.0000       19.93827    
   223.0000       20.16396    
   227.0000       20.44144    
   230.0000       20.64123    
   234.0000       20.92242    
   240.0000       21.25170    
   246.0000       21.56618    
   252.0000       22.23585    
   257.0000       23.25330    
   260.0000       23.06831    
   264.0000       27.43038    
   269.0000       28.60322    
   274.0000       29.55407    
   279.0000       26.67932    
   284.0000       31.04140    
   290.0000       33.26868    
   296.0000       31.32258    
   301.0000       30.54562    
   308.0000       33.04299    
   318.0000       32.60641    
   328.0000       34.18623    
   338.0000       33.43517    
   348.0000       32.44732    
   357.0000       42.28881    
   366.0000       62.48977    
   375.0000       61.26883    
   385.0000       50.16941    
   395.0000       71.99828    
   405.0000       87.98145    
   414.0000       86.79751    
   422.0000       78.65794    
   430.0000       74.95813    
   441.0000       85.83556    
   451.0000       86.64952    
   460.0000       75.88308    
   470.0000       76.47505    
   480.0000       84.87361    
   490.0000       71.07333    
   500.0000       86.72352    
   506.0000       73.07122    
   512.0000       123.2036    
   520.0000       116.1740    
   530.0000       105.7775    
   540.0000       87.01950    
   550.0000       84.94761    
   560.0000       109.1074    
   570.0000       120.5768    
   580.0000       115.5820    
   590.0000       116.4330    
   600.0000       95.67706    
   610.0000       94.38213    
   620.0000       116.9510    
   630.0000       109.2553    
   640.0000       117.5429    
   650.0000       111.9562    
   658.0000       101.5967    
   665.0000       113.3251    
   675.0000       117.7649    
   685.0000       98.59990    
   695.0000       114.3611    
   705.0000       90.01635    
   716.0000       115.5080    
   726.0000       114.8421    
   735.0000       113.9911    
   745.0000       109.1074    
   755.0000       107.1835    
   765.0000       95.82505    
   775.0000       105.1856    
   785.0000       96.49101    
   795.0000       102.0777    
   805.0000       102.6327    
   815.0000       101.8187    
   825.0000       102.6327    
   835.0000       79.39790    
   845.0000       98.00793    
   855.0000       95.49207    
   865.0000       97.89694    
   875.0000       97.34196    
   885.0000       96.93499    
   895.0000       96.30602    
   905.0000       92.97620    
   915.0000       95.89905    
   925.0000       246.4443    
   935.0000       405.4990    
   945.0000       578.6501    
   955.0000       694.8241    
   965.0000       754.3910    
   975.0000       228.4632    
   985.0000       584.5698    
   995.0000       575.6902    
   1005.000       757.7208    
   1015.000       754.7610    
   1025.000       452.1166    
   1035.000       603.8088    
   1045.000       915.3326    
   1055.000       875.0048    
   1065.000       709.9933    
   1075.000       797.6788    
   1085.000       667.4455    
   1095.000       810.9980    
   1105.000       768.4503    
   1115.000       738.4819    
   1125.000       645.2466    
   1135.000       785.8394    
   1145.000       722.2027    
   1155.000       737.7419    
   1165.000       735.5220    
   1175.000       491.3346    
   1185.000       693.3442    
   1195.000       538.6921    
   1205.000       429.5478    
   1215.000       325.5832    
   1225.000       513.1635    
   1235.000       675.9550    
   1245.000       712.5831    
   1255.000       680.3948    
   1265.000       616.0182    
   1275.000       734.7820    
   1285.000       753.2811    
   1295.000       616.3881    
   1305.000       608.9885    
   1315.000       722.9426    
   1325.000       685.9445    
   1335.000       620.4579    
   1345.000       699.2639    
   1355.000       673.7352    
   1365.000       607.8786    
   1375.000       620.4579    
   1385.000       616.3881    
   1395.000       497.2543    
   1405.000       501.6941    
   1415.000       560.8911    
   1425.000       557.5612    
   1435.000       561.2610    
   1442.000       580.5000    
   1447.000       584.1998    
   1455.000       562.7409    
   1465.000       520.1931    
   1475.000       518.7132    
   1485.000       522.7830    
   1495.000       522.7830    
   1505.000       491.7046    
   1512.000       441.3872    
   1517.000       465.4359    
   1525.000       452.1166    
   1535.000       388.1099    
   1545.000       393.2897    
   1555.000       377.0105    
   1565.000       396.9895    
   1575.000       421.4082    
   1585.000       435.4675    
   1595.000       439.1673    
   1605.000       427.3279    
   1615.000       422.5182    
   1625.000       403.6491    
   1635.000       424.7380    
   1645.000       427.3279    
   1655.000       401.0593    
   1665.000       425.8480    
   1672.000       382.5602    
   1677.000       431.0277    
   1685.000       438.4273    
   1695.000       411.4187    
   1705.000       395.1396    
   1715.000       372.5707    
   1725.000       366.6140    
   1735.000       387.0000    
   1745.000       376.6405    
   1755.000       393.2897    
   1765.000       365.4301    
   1775.000       365.6151    
   1785.000       371.0908    
   1800.000       387.0000    
   1900.000       390.0000    
   2000.000       379.0000    
   2100.000       364.0000    
   2200.000       353.0000    
   2300.000       349.0000    
   2400.000       346.0000    
   2500.000       346.0000    
   2600.000       347.0000    
   2700.000       347.0000    
   2800.000       348.0000    
   2900.000       353.0000    
   2940.000       357.0000    
   2980.000       362.0000    
   3020.000       367.0000    
   3060.000       374.0000    
   3100.000       382.0000    
   3140.000       392.0000    
   3180.000       403.0000    
   3220.000       417.0000    
   3260.000       432.0000    
   3300.000       449.0000    
   3340.000       469.0000    
   3380.000       490.0000    
   3420.000       513.0000    
   3460.000       535.0000    
   3500.000       558.0000    
   3540.000       597.0000    
   3580.000       577.0000    
   3620.000       563.0000    
   3660.000       599.0000    
   3700.000       676.0000    
   3740.000       706.0000    
   3780.000       682.0000    
   3820.000       708.0000    
   3860.000       764.0000    
   3900.000       778.0000    
   3940.000       760.0000    
   3980.000       813.0000    
   4020.000       920.0000    
   4060.000       924.0000    
   4100.000       880.0000    
   4140.000       903.0000    
   4180.000       938.0000    
   4220.000       947.0000    
   4260.000       927.0000    
   4300.000       896.0000    
   4340.000       896.0000    
   4380.000       931.0000    
   4420.000       969.0000    
   4460.000       997.0000    
   4500.000       1017.000    
   4540.000       1016.000    
   4580.000       1005.000    
   4620.000       1013.000    
   4660.000       1008.000    
   4700.000       994.0000    
   4740.000       1013.000    
   4780.000       1006.000    
   4820.000       984.0000    
   4860.000       980.0000    
   4900.000       967.0000    
   4940.000       966.0000    
   4980.000       984.0000    
   5020.000       977.0000    
   5060.000       942.0000    
   5100.000       945.0000    
   5140.000       933.0000    
   5180.000       917.0000    
   5220.000       928.0000    
   5260.000       920.0000    
   5300.000       905.0000    
   5340.000       886.0000    
   5380.000       990.0000    
   5420.000       941.0000    
   5460.000       961.0000    
   5500.000       945.0000    
   5540.000       961.0000    
   5580.000       956.0000    
   5620.000       945.0000    
   5660.000       936.0000    
   5700.000       926.0000    
   5740.000       918.0000    
   5780.000       910.0000    
   5820.000       903.0000    
   5860.000       897.0000    
   5900.000       891.0000    
   5940.000       886.0000    
   5980.000       883.0000    
   6020.000       880.0000    
   6060.000       878.0000    
   6100.000       876.0000    
   6140.000       874.0000    
   6180.000       872.0000    
   6220.000       870.0000    
   6260.000       868.0000    
   6300.000       865.0000    
   6340.000       864.0000    
   6380.000       862.0000    
   6420.000       860.0000    
   6460.000       858.0000    
   6500.000       855.0000    
   6540.000       854.0000    
   6580.000       852.0000    
   6620.000       850.0000    
   6660.000       848.0000    
   6700.000       846.0000    
   6740.000       844.0000    
   6780.000       842.0000    
   6820.000       841.0000    
   6860.000       839.0000    
   6900.000       837.0000    
   6940.000       835.0000    
   6980.000       833.0000    
   7020.000       832.0000    
   7060.000       830.0000    
   7100.000       828.0000    
   7140.000       828.0000    
   7180.000       826.0000    
   7220.000       825.0000    
   7260.000       823.0000    
   7300.000       821.0000    
   7340.000       821.0000    
   7380.000       819.0000    
   7420.000       818.0000    
   7460.000       816.0000    
   7500.000       814.0000    
   7540.000       814.0000    
   7580.000       812.0000    
   7620.000       811.0000    
   7660.000       809.0000    
   7700.000       807.0000    
   7740.000       807.0000    
   7780.000       805.0000    
   7820.000       804.0000    
   7860.000       802.0000    
   7900.000       801.0000    
   7940.000       800.0000    
   8000.000       797.0000    
   8100.000       794.0000    
   8200.000       791.0000    
   8300.000       789.0000    
   8400.000       786.0000    
   8500.000       783.0000    
   8600.000       781.0000    
   8700.000       778.0000    
   8800.000       776.0000    
   8900.000       774.0000    
   9000.000       771.0000    
   9100.000       769.0000    
   9200.000       767.0000    
   9300.000       765.0000    
   9400.000       763.0000    
   9500.000       761.0000    
   9600.000       759.0000    
   9700.000       758.0000    
   9800.000       756.0000    
   9900.000       754.0000    
   10000.00       753.0000    
   10025.00       750.1576    
   10075.00       738.4825    
   10125.00       749.1230    
   10175.00       739.8126    
   10225.00       741.1427    
   10275.00       741.7338    
   10325.00       730.9455    
   10375.00       724.8863    
   10425.00       726.3641    
   10475.00       715.7236    
   10525.00       710.4034    
   10575.00       697.3983    
   10625.00       691.0435    
   10675.00       682.0286    
   10725.00       684.3932    
   10775.00       678.0384    
   10825.00       667.1023    
   10875.00       662.8165    
   10925.00       656.7573    
   10975.00       649.0725    
   11025.00       646.1168    
   11075.00       637.2497    
   11125.00       634.4418    
   11175.00       628.8259    
   11225.00       627.9392    
   11275.00       619.5155    
   11325.00       617.7421    
   11375.00       613.1607    
   11425.00       606.5104    
   11475.00       612.1262    
   11525.00       609.3183    
   11575.00       601.3379    
   11625.00       592.4708    
   11675.00       590.9929    
   11725.00       592.9142    
   11775.00       580.7958    
   11825.00       574.5888    
   11875.00       565.2783    
   11925.00       572.8154    
   11975.00       553.8989    
   12025.00       563.2093    
   12075.00       556.8546    
   12125.00       556.5590    
   12175.00       557.0023    
   12225.00       552.4210    
   12275.00       547.8397    
   12325.00       543.7017    
   12375.00       541.3372    
   12425.00       534.5390    
   12475.00       532.3222    
   12525.00       526.8541    
   12575.00       524.3418    
   12625.00       521.0905    
   12675.00       515.7703    
   12725.00       515.3270    
   12775.00       514.2924    
   12825.00       494.7848    
   12875.00       504.0952    
   12925.00       498.1838    
   12975.00       502.4696    
   13025.00       495.3759    
   13075.00       496.2626    
   13125.00       486.5088    
   13175.00       484.1442    
   13225.00       483.5531    
   13275.00       475.1294    
   13325.00       476.1638    
   13375.00       470.8436    
   13425.00       471.5825    
   13475.00       467.0012    
   13525.00       464.1932    
   13575.00       456.2129    
   13625.00       454.4395    
   13675.00       455.9173    
   13725.00       457.2473    
   13775.00       455.4739    
   13825.00       455.3261    
   13875.00       450.4492    
   13925.00       430.2027    
   13975.00       427.8381    
   14025.00       422.3700    
   14075.00       425.3257    
   14125.00       420.1533    
   14175.00       423.5523    
   14225.00       417.9365    
   14275.00       412.1729    
   14325.00       419.8577    
   14375.00       421.1878    
   14425.00       410.9906    
   14475.00       418.8232    
   14525.00       414.0941    
   14570.00       416.4586    
   14620.00       406.5570    
   14675.00       404.7836    
   14725.00       400.2023    
   14775.00       402.7146    
   14825.00       404.0447    
   14875.00       400.6456    
   14925.00       409.5128    
   14975.00       405.6703    
   15025.00       401.3846    
   15075.00       401.0890    
   15125.00       407.5915    
   15175.00       408.7738    
   15225.00       407.8871    
   15275.00       410.6950    
   15325.00       408.4782    
   15375.00       408.0349    
   15425.00       405.3748    
   15475.00       405.9659    
   15525.00       402.2712    
   15575.00       388.8228    
   15625.00       391.9263    
   15675.00       390.3007    
   15725.00       399.3156    
   15775.00       374.0443    
   15825.00       373.3054    
   15875.00       372.5664    
   15925.00       385.1282    
   15975.00       376.4089    
   16050.00       373.8965    
   16150.00       379.9557    
   16250.00       367.5417    
   16350.00       380.9902    
   16450.00       360.7436    
   16550.00       373.4531    
   16650.00       361.1870    
   16750.00       362.6648    
   16850.00       353.5021    
   16950.00       356.4579    
   17050.00       349.2164    
   17150.00       344.6350    
   17250.00       338.4281    
   17350.00       327.1964    
   17450.00       325.5708    
   17550.00       319.2160    
   17650.00       313.8957    
   17750.00       305.9153    
   17850.00       302.0729    
   17950.00       295.1270    
   18050.00       287.4422    
   18150.00       282.5652    
   18250.00       278.7229    
   18350.00       274.4371    
   18450.00       269.1168    
   18550.00       266.4567    
   18650.00       259.5108    
   18750.00       253.7471    
   18850.00       252.4171    
   18950.00       243.5500    
   19050.00       245.7668    
   19150.00       240.7421    
   19250.00       237.4908    
   19350.00       230.8405    
   19450.00       225.2246    
   19550.00       224.4857    
   19650.00       220.0521    
   19750.00       214.4363    
   19850.00       211.9240    
   19950.00       209.4116    
   20050.00       208.2293    
   20150.00       205.5692    
   20250.00       200.3967    
   20350.00       198.0322    
   20450.00       197.7366    
   20550.00       194.4853    
   20650.00       191.5296    
   20750.00       189.6084    
   20850.00       186.9483    
   20950.00       183.6970    
   21050.00       183.1058    
   21150.00       180.0023    
   21250.00       177.4900    
   21350.00       176.3077    
   21450.00       173.7954    
   21550.00       171.2830    
   21650.00       167.5884    
   21750.00       165.6672    
   21850.00       163.8938    
   21950.00       162.1203    
   22050.00       158.2779    
   22150.00       157.9824    
   22250.00       154.1399    
   22350.00       152.3665    
   22450.00       150.2975    
   22550.00       148.6719    
   22650.00       145.4797    
   22750.00       144.7556    
   22850.00       141.6964    
   22950.00       119.7799    
   23050.00       127.3613    
   23150.00       126.5632    
   23250.00       108.8586    
   23350.00       116.9572    
   23450.00       111.9621    
   23550.00       100.1097    
   23650.00       108.3118    
   23750.00       103.4940    
   23850.00       94.70074    
   23950.00       100.6269    
   24050.00       98.42493    
   24150.00       90.50364    
   24250.00       94.06527    
   24350.00       91.68592    
   24450.00       86.98636    
   24550.00       85.84841    
   24650.00       86.41000    
   24750.00       83.05527    
   24850.00       74.66107    
   24950.00       73.33100    
   25050.00       74.69064    
   25150.00       69.75461    
   25250.00       71.88271    
   25350.00       71.79404    
   25450.00       70.49353    
   25550.00       69.88761    
   25650.00       70.31619    
   25750.00       71.02556    
   25850.00       68.40976    
   25950.00       69.10435    
   26050.00       69.48859    
   26150.00       68.11419    
   26250.00       66.94669    
   26350.00       67.36048    
   26450.00       66.81368    
   26550.00       65.86786    
   26650.00       64.71513    
   26750.00       65.69051    
   26850.00       65.01070    
   26950.00       63.50329    
   27050.00       63.73975    
   27150.00       63.14861    
   27250.00       62.88260    
   27350.00       61.50819    
   27450.00       61.61164    
   27550.00       61.22740    
   27650.00       60.39980    
   27750.00       59.43920    
   27850.00       59.40964    
   27950.00       59.24708    
   28050.00       58.59682    
   28150.00       57.69534    
   28250.00       57.37020    
   28350.00       57.11897    
   28450.00       56.40960    
   28550.00       55.81846    
   28650.00       55.30121    
   28750.00       54.71007    
   28850.00       54.31105    
   28950.00       53.82336    
   29050.00       53.26178    
   29150.00       52.84798    
   29250.00       51.94649    
   29350.00       51.87260    
   29450.00       51.20757    
   29550.00       50.74943    
   29650.00       50.40953    
   29750.00       49.93661    
   29850.00       49.36025    
   29950.00       48.84300    
   30050.00       48.41442    
   30150.00       48.16319    
   30250.00       47.63116    
   30350.00       47.05480    
   30450.00       46.92179    
   30550.00       46.50800    
   30650.00       46.10897    
   30750.00       45.84296    
   30850.00       45.29616    
   30950.00       45.01537    
   31050.00       44.79369    
   31150.00       44.12865    
   31250.00       43.93653    
   31350.00       43.58185    
   31450.00       43.19761    
   31550.00       42.75425    
   31650.00       42.29612    
   31750.00       42.05966    
   31850.00       41.69020    
   31950.00       41.39463    
   32100.00       40.80349    
   32300.00       40.04978    
   32500.00       39.35519    
   32700.00       38.60149    
   32900.00       37.78867    
   33100.00       37.15319    
   33300.00       36.44382    
   33500.00       35.83791    
   33700.00       35.11376    
   33900.00       34.38961    
   34100.00       33.66546    
   34300.00       33.10388    
   34500.00       32.46840    
   34700.00       31.80337    
   34900.00       31.19745    
   35100.00       30.60631    
   35300.00       29.92650    
   35500.00       29.39447    
   35700.00       28.78856    
   35900.00       28.22697    
   36100.00       27.72450    
   36300.00       27.17769    
   36500.00       26.57178    
   36700.00       26.05453    
   36900.00       25.43383    
   37100.00       24.90180    
   37300.00       24.50278    
   37500.00       23.88208    
   37700.00       23.57174    
   37900.00       23.09882    
   38100.00       22.68503    
   38300.00       22.30078    
   38500.00       21.88699    
   38700.00       21.39929    
   38900.00       21.00027    
   39100.00       20.64559    
   39300.00       20.26135    
   39500.00       19.78844    
   39700.00       19.43375    
   39900.00       18.97562    
   40100.00       18.69483    
   40300.00       18.38448    
   40500.00       18.00023    
   40700.00       17.70466    
   40900.00       17.39432    
   41100.00       17.09875    
   41300.00       16.81795    
   41500.00       16.49283    
   41700.00       16.19726    
   41900.00       15.90168    
   42100.00       15.60611    
   42300.00       15.41399    
   42500.00       15.10365    
   42700.00       14.88197    
   42900.00       14.10314    
   43100.00       13.32431    
   43300.00       13.33466    
   43500.00       12.69179    
   43700.00       12.34302    
   43900.00       12.07848    
   44100.00       11.56271    
   44300.00       11.40754    
   44500.00       11.19621    
   44700.00       10.78832    
   44900.00       10.78093    
   45100.00       10.52083    
   45300.00       10.23412    
   45500.00       10.19422    
   45700.00       10.05235    
   45900.00       9.724264    
   46100.00       9.750866    
   46300.00       9.551356    
   46500.00       9.430172    
   46700.00       9.372536    
   46900.00       9.204061    
   47100.00       9.031153    
   47300.00       9.038542    
   47500.00       8.840509    
   47700.00       8.725237    
   47900.00       8.630654    
   48100.00       8.423756    
   48300.00       8.451835    
   48500.00       8.286315    
   48700.00       8.128184    
   48900.00       8.020302    
   49100.00       7.910941    
   49300.00       7.803057    
   49500.00       7.662661    
   49700.00       7.622760    
   49900.00       7.503054    
   50100.00       7.409949    
   50300.00       7.309455    
   50500.00       7.160192    
   50700.00       7.101078    
   50900.00       7.003540    
   51100.00       6.883834    
   51300.00       6.824719    
   51500.00       6.710925    
   51700.00       6.678412    
   51900.00       6.563140    
   52100.00       6.489247    
   52300.00       6.378408    
   52500.00       6.328161    
   52700.00       6.301560    
   52900.00       6.155253    
   53100.00       6.069538    
   53300.00       6.025202    
   53500.00       5.946876    
   53700.00       5.881850    
   53900.00       5.815347    
   54100.00       5.747365    
   54300.00       5.642438    
   54500.00       5.617315    
   54700.00       5.518299    
   54900.00       5.468052    
   55100.00       5.386770    
   55300.00       5.403026    
   55500.00       5.258197    
   55700.00       5.247852    
   55900.00       5.157703    
   56100.00       5.125190    
   56300.00       5.026174    
   56500.00       5.002528    
   56700.00       4.941936    
   56900.00       4.850310    
   57100.00       4.834053    
   57300.00       4.774940    
   57500.00       4.717303    
   57700.00       4.655233    
   57900.00       4.622721    
   58100.00       4.551784    
   58300.00       4.503015    
   58500.00       4.452767    
   58700.00       4.381830    
   58900.00       4.337495    
   59100.00       4.288726    
   59300.00       4.248824    
   59500.00       4.186754    
   59700.00       4.154242    
   59900.00       4.106950    
   60100.00       4.058181    
   60300.00       4.010890    
   60500.00       3.951776    
   60700.00       3.908918    
   60900.00       3.861627    
   61100.00       3.812858    
   61300.00       3.778867    
   61500.00       3.738965    
   61700.00       3.703497    
   61900.00       3.659161    
   62100.00       3.622215    
   62300.00       3.571968    
   62500.00       3.523199    
   62700.00       3.484775    
   62900.00       3.449306    
   63100.00       3.406449    
   63300.00       3.379847    
   63500.00       3.335512    
   63700.00       3.307432    
   63900.00       3.258663    
   64200.00       3.209894    
   64600.00       3.134524    
   65000.00       3.065065    
   65400.00       2.997083    
   65800.00       2.933536    
   66200.00       2.867033    
   66600.00       2.804963    
   67000.00       2.744371    
   67400.00       2.682301    
   67800.00       2.624665    
   68200.00       2.567029    
   68600.00       2.513826    
   69000.00       2.459145    
   69400.00       2.407420    
   69800.00       2.355696    
   70200.00       2.303971    
   70600.00       2.258157    
   71000.00       2.209388    
   71400.00       2.163575    
   71800.00       2.117762    
   72200.00       2.074904    
   72600.00       2.030568    
   73000.00       1.989189    
   73400.00       1.947809    
   73800.00       1.909385    
   74200.00       1.868005    
   74600.00       1.829581    
   75000.00       1.792634    
   75400.00       1.757166    
   75800.00       1.724653    
   76200.00       1.690663    
   76600.00       1.656672    
   77000.00       1.624159    
   77400.00       1.591646    
   77800.00       1.562089    
   78200.00       1.531054    
   78600.00       1.501498    
   79000.00       1.472532    
   79400.00       1.444305    
   79800.00       1.416964    
   80200.00       1.389181    
   80600.00       1.363023    
   81000.00       1.338047    
   81400.00       1.312628    
   81800.00       1.288687    
   82200.00       1.264893    
   82600.00       1.241395    
   83000.00       1.218637    
   83400.00       1.195878    
   83800.00       1.174006    
   84200.00       1.153463    
   84600.00       1.132330    
   85000.00       1.112231    
   85400.00       1.092280    
   85800.00       1.072920    
   86200.00       1.054004    
   86600.00       1.035531    
   87000.00       1.017353    
   87400.00      0.9994711    
   87800.00      0.9820325    
   88200.00      0.9647416    
   88600.00      0.9481897    
   89000.00      0.9317856    
   89400.00      0.9161204    
   89800.00      0.9000117    
   90200.00      0.8852333    
   90600.00      0.8704547    
   91000.00      0.8549373    
   91400.00      0.8411933    
   91800.00      0.8273014    
   92200.00      0.8137052    
   92600.00      0.8002567    
   93000.00      0.7871038    
   93400.00      0.7740988    
   93800.00      0.7615371    
   94200.00      0.7491231    
   94600.00      0.7368569    
   95000.00      0.7250341    
   95400.00      0.7133591    
   95800.00      0.7019796    
   96200.00      0.6907479    
   96600.00      0.6799597    
   97000.00      0.6690235    
   97400.00      0.6579396    
